Arquivo: c:\arq\medidas\BBA_2703_070421\BBA_AMP02B_V.dat
Data: 2703	 Hora:  0712
Comentário: 
NomeParametro	 ValorParametro
Nmedias	5
PausaCorretora	3000
PausaShunt	2000
PausaLeitura	500
NumCiclos	3
 NPassosCor	7
DeltaShunt	3.00
TetaIni	-0.10
TetaFim	0.10
I[mA]	 142.4
ACV09B	DeltaPos^2	AMP02B	AMP01B_0	AMP02A_0	AMP02B_0	AMP03A_0	AMP03B_0	AMP03C_0	AMP04A_0	AMP04B_0	AMP05A_0	AMP05B_0	AMP06A_0	AMP06B_0	AMP07A_0	AMP07B_0	AMP08A_0	AMP08B_0	AMP09A_0	AMP09B_0	AMP10A_0	AMP10B_0	AMU11A_0	AMU11B_0	AMP12A_0	AMP12B_0	AMP01A_0	AMP01B_1	AMP02A_1	AMP02B_1	AMP03A_1	AMP03B_1	AMP03C_1	AMP04A_1	AMP04B_1	AMP05A_1	AMP05B_1	AMP06A_1	AMP06B_1	AMP07A_1	AMP07B_1	AMP08A_1	AMP08B_1	AMP09A_1	AMP09B_1	AMP10A_1	AMP10B_1	AMU11A_1	AMU11B_1	AMP12A_1	AMP12B_1	AMP01A_1	
-0.1000	 6.12614403301555E-0004	1.0380	0.2531	0.5436	1.0380	1.1844	1.2451	-1.3107	-0.1267	-0.1690	1.4250	1.0326	0.8713	-1.5420	-1.0597	1.2847	1.7535	0.4136	0.2782	-0.8466	-0.0259	0.3744	1.0157	2.0029	1.1468	0.1553	-0.7095	0.2821	0.5689	1.0602	1.2181	1.2193	-1.3691	-0.1506	-0.1816	1.4209	1.0565	0.8808	-1.5568	-1.0879	1.2961	1.7702	0.4383	0.3056	-0.8823	-0.0486	0.3718	1.0269	2.0154	1.1448	0.1320	-0.7455	
-0.0667	 3.35485720145352E-0004	0.8322	0.1021	0.3712	0.8322	0.9510	1.5115	-0.7286	0.0770	-0.1802	1.2867	0.9583	0.9084	-1.3228	-0.7192	1.0064	1.5284	0.2554	0.1633	-0.5557	0.1811	0.4808	1.0263	1.8220	1.0663	0.2888	-0.4511	0.1240	0.3902	0.8491	0.9757	1.4922	-0.7719	0.0594	-0.1884	1.2849	0.9751	0.9152	-1.3342	-0.7396	1.0160	1.5409	0.2734	0.1828	-0.5825	0.1647	0.4792	1.0356	1.8310	1.0641	0.2712	-0.4780	
-0.0333	 1.35931472756928E-0004	0.6227	-0.0520	0.1955	0.6227	0.7127	1.7822	-0.1349	0.2846	-0.1915	1.1467	0.8821	0.9459	-1.1000	-0.3721	0.7244	1.2993	0.0936	0.0452	-0.2598	0.3917	0.5886	1.0364	1.6383	0.9849	0.4248	-0.1883	-0.0370	0.2082	0.6333	0.7281	1.7693	-0.1625	0.2738	-0.1956	1.1472	0.8913	0.9490	-1.1078	-0.3852	0.7312	1.3076	0.1049	0.0564	-0.2766	0.3822	0.5884	1.0435	1.6435	0.9825	0.4131	-0.2058	
0.0000	 2.72730471136171E-0005	0.4111	-0.2081	0.0173	0.4111	0.4713	2.0545	0.4638	0.4945	-0.2021	1.0061	0.8039	0.9829	-0.8747	-0.0220	0.4401	1.0677	-0.0702	-0.0746	0.0396	0.6048	0.6973	1.0465	1.4523	0.9025	0.5624	0.0773	-0.2009	0.0236	0.4161	0.4775	2.0480	0.4518	0.4901	-0.2026	1.0084	0.8059	0.9830	-0.8789	-0.0271	0.4454	1.0716	-0.0657	-0.0716	0.0325	0.6015	0.6985	1.0513	1.4532	0.8996	0.5565	0.0694	
0.0333	 8.20401072818996E-0006	0.1974	-0.3666	-0.1621	0.1974	0.2281	2.3280	1.0657	0.7057	-0.2123	0.8647	0.7248	1.0202	-0.6478	0.3301	0.1538	0.8335	-0.2356	-0.1958	0.3418	0.8197	0.8069	1.0561	1.2646	0.8194	0.7012	0.3452	-0.3670	-0.1624	0.1965	0.2248	2.3281	1.0703	0.7083	-0.2087	0.8694	0.7193	1.0165	-0.6483	0.3324	0.1547	0.8336	-0.2378	-0.2010	0.3446	0.8224	0.8092	1.0587	1.2616	0.8163	0.7011	0.3470	
0.0667	 8.69651453182874E-0005	-0.0245	-0.5312	-0.3482	-0.0245	-0.0243	2.6098	1.6871	0.9251	-0.2222	0.7189	0.6420	1.0577	-0.4131	0.6943	-0.1432	0.5915	-0.4070	-0.3221	0.6549	1.0421	0.9207	1.0664	1.0691	0.7333	0.8452	0.6234	-0.5390	-0.3553	-0.0320	-0.0374	2.6161	1.7078	0.9349	-0.2144	0.7260	0.6286	1.0509	-0.4098	0.7046	-0.1446	0.5868	-0.4164	-0.3360	0.6679	1.0516	0.9245	1.0666	1.0619	0.7301	0.8512	0.6352	
0.1000	 2.71889770243560E-0004	-0.2484	-0.6969	-0.5359	-0.2484	-0.2797	2.8926	2.3095	1.1465	-0.2310	0.5730	0.5572	1.0947	-0.1762	1.0620	-0.4425	0.3471	-0.5796	-0.4495	0.9710	1.2667	1.0359	1.0778	0.8713	0.6462	0.9901	0.9046	-0.7127	-0.5502	-0.2623	-0.3029	2.9060	2.3468	1.1636	-0.2191	0.5823	0.5360	1.0843	-0.1691	1.0807	-0.4469	0.3381	-0.5965	-0.4722	0.9948	1.2833	1.0414	1.0756	0.8599	0.6424	1.0027	0.9266	
