Arquivo: c:\arq\medidas\BBA_0603_073413\BBA_AMP04A_H.dat
Data: 0603	 Hora:  0753
Comentário: 
NomeParametro	 ValorParametro
Nmedias	5
PausaCorretora	3000
PausaShunt	2000
PausaLeitura	500
NumCiclos	3
 NPassosCor	9
DeltaShunt	3.00
TetaIni	-0.20
TetaFim	0.20
I[mA]	 122.2
ACH11B	DeltaPos^2	AMP04A	AMP01B_0	AMP02A_0	AMP02B_0	AMP03A_0	AMP03B_0	AMP04A_0	AMP04B_0	AMP05A_0	AMP05B_0	AMP06A_0	AMP06B_0	AMP07A_0	AMP07B_0	AMP08A_0	AMP08B_0	AMP09A_0	AMP09B_0	AMP10A_0	AMP10B_0	AMP11A_0	AMU11A_0	AMU11B_0	AMP11B_0	AMP12A_0	AMP12B_0	AMP01A_0	AMP01B_1	AMP02A_1	AMP02B_1	AMP03A_1	AMP03B_1	AMP04A_1	AMP04B_1	AMP05A_1	AMP05B_1	AMP06A_1	AMP06B_1	AMP07A_1	AMP07B_1	AMP08A_1	AMP08B_1	AMP09A_1	AMP09B_1	AMP10A_1	AMP10B_1	AMP11A_1	AMU11A_1	AMU11B_1	AMP11B_1	AMP12A_1	AMP12B_1	AMP01A_1	
-0.2000	 5.59235001739845E-0003	-1.2969	-1.0597	-0.1908	-2.2538	1.7193	0.6852	-1.2969	-1.1322	0.2145	1.6853	0.0359	-1.7163	0.4131	0.8801	-0.2885	-0.2096	-0.9301	-0.2493	0.6379	-0.4181	-0.0205	-1.6228	-1.2166	-1.9726	-0.5939	-0.5410	0.3950	-0.9551	-0.2094	-2.3084	1.6682	0.6726	-1.2659	-1.0926	0.1346	1.5777	0.0176	-1.7026	0.4374	0.8653	-0.3540	-0.2433	-0.8177	-0.1611	0.5505	-0.4943	-0.0182	-1.4871	-1.0739	-1.9591	-0.6611	-0.6282	0.4670	
-0.1500	 4.10195339724169E-0003	-1.0479	-1.0619	-0.0012	-2.1869	1.2335	0.2750	-1.0479	-0.9080	-0.2833	1.1581	0.1983	-1.4801	0.1784	0.5219	-0.3062	-0.0955	-0.7507	-0.2096	0.4508	-0.4970	0.0046	-1.1456	-0.7776	-2.0830	-0.5918	-0.6785	0.2443	-0.9729	-0.0173	-2.2339	1.1880	0.2628	-1.0215	-0.8743	-0.3512	1.0662	0.1823	-1.4686	0.1987	0.5093	-0.3624	-0.1244	-0.6540	-0.1337	0.3756	-0.5617	0.0065	-1.0294	-0.6551	-2.0714	-0.6490	-0.7529	0.3055	
-0.1000	 2.79380408667386E-0003	-0.7956	-1.0667	0.1913	-2.1183	0.7352	-0.1451	-0.7956	-0.6804	-0.7873	0.6225	0.3630	-1.2408	-0.0616	0.1578	-0.3234	0.0201	-0.5707	-0.1712	0.2615	-0.5754	0.0234	-0.6626	-0.3343	-2.1952	-0.5880	-0.8163	0.0895	-0.9929	0.1782	-2.1565	0.6998	-0.1530	-0.7738	-0.6522	-0.8437	0.5461	0.3500	-1.2311	-0.0447	0.1470	-0.3703	-0.0037	-0.4910	-0.1088	0.1993	-0.6286	-0.0353	-0.5666	-0.2333	-2.1857	-0.6358	-0.8778	0.1397	
-0.0500	 1.73712349967332E-0003	-0.5427	-1.0738	0.3838	-2.0488	0.2356	-0.5662	-0.5427	-0.4525	-1.2927	0.0840	0.5280	-1.0009	-0.3032	-0.2080	-0.3396	0.1368	-0.3923	-0.1344	0.0722	-0.6534	-0.0077	-0.1789	0.1076	-2.3084	-0.5839	-0.9534	-0.0670	-1.0165	0.3744	-2.0782	0.2057	-0.5739	-0.5244	-0.4288	-1.3376	0.0225	0.5180	-0.9924	-0.2902	-0.2168	-0.3766	0.1183	-0.3292	-0.0849	0.0231	-0.6953	0.0033	-0.1035	0.1870	-2.3010	-0.6207	-1.0013	-0.0287	
0.0000	 9.25865536381344E-0004	-0.2893	-1.0843	0.5777	-1.9776	-0.2654	-0.9880	-0.2893	-0.2233	-1.7983	-0.4574	0.6940	-0.7599	-0.5474	-0.5765	-0.3549	0.2545	-0.2160	-0.0998	-0.1166	-0.7297	0.0286	0.3031	0.5475	-2.4224	-0.5777	-1.0891	-0.2273	-1.0433	0.5719	-1.9981	-0.2885	-0.9951	-0.2748	-0.2046	-1.8317	-0.5033	0.6869	-0.7527	-0.5376	-0.5836	-0.3816	0.2414	-0.1701	-0.0638	-0.1524	-0.7603	0.0128	0.3578	0.6053	-2.4174	-0.6044	-1.1234	-0.2001	
0.0500	 3.54584377256325E-0004	-0.0354	-1.0972	0.7720	-1.9052	-0.7696	-1.4128	-0.0354	0.0060	-2.3029	-0.9988	0.8600	-0.5184	-0.7927	-0.9460	-0.3694	0.3725	-0.0415	-0.0669	-0.3054	-0.8060	-0.0111	0.7839	0.9851	-2.5370	-0.5708	-1.2234	-0.3901	-1.0727	0.7698	-1.9166	-0.7854	-1.4180	-0.0245	0.0200	-2.3251	-1.0294	0.8561	-0.5123	-0.7872	-0.9515	-0.3854	0.3651	-0.0133	-0.0450	-0.3274	-0.8242	0.0033	0.8172	1.0202	-2.5342	-0.5865	-1.2439	-0.3746	
0.1000	 6.34878198807939E-0005	0.2188	-1.1135	0.9673	-1.8312	-1.2733	-1.8383	0.2188	0.2358	-2.8050	-1.5394	1.0262	-0.2765	-1.0406	-1.3162	-0.3829	0.4914	0.1311	-0.0364	-0.4932	-0.8807	0.0190	1.2609	1.4177	-2.6529	-0.5621	-1.3569	-0.5559	-1.1042	0.9683	-1.8340	-1.2826	-1.8428	0.2256	0.2447	-2.8159	-1.5547	1.0259	-0.2718	-1.0389	-1.3197	-0.3888	0.4896	0.1427	-0.0281	-0.5016	-0.8872	-0.0153	1.2736	1.4314	-2.6521	-0.5676	-1.3639	-0.5511	
0.1500	 3.24998619432850E-0005	0.4716	-1.1334	1.1629	-1.7556	-1.7753	-2.2626	0.4716	0.4656	-3.3030	-2.0768	1.1929	-0.0346	-1.2881	-1.6859	-0.3951	0.6107	0.3015	-0.0078	-0.6798	-0.9543	0.0036	1.7328	1.8466	-2.7695	-0.5520	-1.4884	-0.7240	-1.1412	1.1676	-1.7486	-1.7779	-2.2661	0.4752	0.4701	-3.3034	-2.0777	1.1961	-0.0305	-1.2909	-1.6888	-0.3898	0.6153	0.2945	-0.0141	-0.6737	-0.9477	0.0119	1.7236	1.8371	-2.7711	-0.5459	-1.4805	-0.7318	
0.2000	 2.40043137363042E-0004	0.7248	-1.1561	1.3587	-1.6783	-2.2766	-2.6871	0.7248	0.6957	-3.7965	-2.6103	1.3600	0.2072	-1.5374	-2.0558	-0.4051	0.7313	0.4685	0.0175	-0.8649	-1.0262	-0.0093	2.1993	2.2688	-2.8867	-0.5400	-1.6178	-0.8952	-1.1785	1.3658	-1.6634	-2.2716	-2.6881	0.7244	0.6944	-3.7857	-2.5960	1.3659	0.2095	-1.5434	-2.0564	-0.3904	0.7410	0.4451	-0.0017	-0.8455	-1.0084	-0.0111	2.1714	2.2397	-2.8900	-0.5242	-1.5970	-0.9133	
