Arquivo: c:\arq\medidas\BBA_0603_073413\BBA_AMP05A_V.dat
Data: 0603	 Hora:  0803
Comentário: 
NomeParametro	 ValorParametro
Nmedias	5
PausaCorretora	3000
PausaShunt	2000
PausaLeitura	500
NumCiclos	3
 NPassosCor	9
DeltaShunt	1.50
TetaIni	-0.20
TetaFim	0.20
I[mA]	 121.4
ACV11A	DeltaPos^2	AMP05A	AMP01B_0	AMP02A_0	AMP02B_0	AMP03A_0	AMP03B_0	AMP04A_0	AMP04B_0	AMP05A_0	AMP05B_0	AMP06A_0	AMP06B_0	AMP07A_0	AMP07B_0	AMP08A_0	AMP08B_0	AMP09A_0	AMP09B_0	AMP10A_0	AMP10B_0	AMP11A_0	AMU11A_0	AMU11B_0	AMP11B_0	AMP12A_0	AMP12B_0	AMP01A_0	AMP01B_1	AMP02A_1	AMP02B_1	AMP03A_1	AMP03B_1	AMP04A_1	AMP04B_1	AMP05A_1	AMP05B_1	AMP06A_1	AMP06B_1	AMP07A_1	AMP07B_1	AMP08A_1	AMP08B_1	AMP09A_1	AMP09B_1	AMP10A_1	AMP10B_1	AMP11A_1	AMU11A_1	AMU11B_1	AMP11B_1	AMP12A_1	AMP12B_1	AMP01A_1	
-0.2000	 4.31598440686345E-0003	-1.2028	-2.4531	-1.3529	0.4217	1.3477	2.6649	0.3040	-1.6792	-1.2028	2.6122	2.5235	0.2048	0.8077	-1.5295	0.1179	0.5345	1.4832	-0.2453	-0.1411	-0.8331	-0.0916	-0.6704	2.0839	1.0527	2.0458	2.0925	1.7393	-2.5445	-1.3965	0.4542	1.4296	2.6551	0.2620	-1.7542	-1.3002	2.6544	2.5796	0.2827	0.9018	-1.6470	0.0429	0.5238	1.5115	-0.1988	-0.1392	-0.9037	-0.1026	-0.7590	2.1417	0.9961	2.1140	2.1501	1.7853	
-0.1500	 2.67878804441113E-0003	-0.6907	-1.9422	-1.0405	0.4149	1.1403	2.5336	0.3540	-1.3355	-0.6907	2.1933	2.1675	-0.0442	0.6175	-1.0760	0.3348	0.3884	1.1157	-0.1634	0.0413	-0.4791	-0.0937	-0.2768	1.9389	0.9171	1.7874	1.7439	1.3600	-2.0147	-1.0755	0.4395	1.2039	2.5269	0.3221	-1.3946	-0.7676	2.2272	2.2120	0.0170	0.6913	-1.1689	0.2761	0.3800	1.1382	-0.1269	0.0429	-0.5344	-0.0901	-0.3465	1.9850	0.8747	1.8412	1.7895	1.3969	
-0.1000	 1.26754039215424E-0003	-0.1627	-1.4136	-0.7184	0.4085	0.9276	2.3973	0.4046	-0.9822	-0.1627	1.7614	1.8001	-0.3020	0.4195	-0.6073	0.5595	0.2404	0.7392	-0.0824	0.2276	-0.1146	-0.0840	0.1289	1.7892	0.7763	1.5187	1.3841	0.9694	-1.4638	-0.7426	0.4250	0.9708	2.3929	0.3832	-1.0226	-0.2159	1.7847	1.8313	-0.2597	0.4707	-0.6708	0.5188	0.2344	0.7549	-0.0573	0.2286	-0.1525	-0.0743	0.0809	1.8202	0.7481	1.5556	1.4158	0.9948	
-0.0500	 3.47719290390666E-0004	0.3741	-0.8745	-0.3903	0.4028	0.7125	2.2567	0.4557	-0.6225	0.3741	1.3220	1.4256	-0.5654	0.2160	-0.1280	0.7896	0.0923	0.3593	-0.0045	0.4138	0.2561	-0.0845	0.5424	1.6351	0.6304	1.2438	1.0175	0.5713	-0.9010	-0.4031	0.4114	0.7350	2.2549	0.4446	-0.6438	0.3463	1.3343	1.4419	-0.5433	0.2429	-0.1611	0.7687	0.0891	0.3676	0.0086	0.4152	0.2363	-0.0667	0.5172	1.6514	0.6159	1.2634	1.0339	0.5850	
0.0000	 1.04640757065633E-0006	0.9156	-0.3264	-0.0578	0.3978	0.4947	2.1137	0.5063	-0.2579	0.9156	0.8762	1.0460	-0.8334	0.0073	0.3578	1.0236	-0.0569	-0.0240	0.0717	0.6021	0.6316	-0.0814	0.9612	1.4781	0.4811	0.9630	0.6443	0.1685	-0.3278	-0.0584	0.3984	0.4962	2.1135	0.5051	-0.2593	0.9139	0.8767	1.0470	-0.8322	0.0091	0.3563	1.0229	-0.0567	-0.0231	0.0723	0.6017	0.6309	-0.0907	0.9599	1.4785	0.4796	0.9638	0.6451	0.1690	
0.0500	 2.79787313132939E-0004	1.4599	0.2237	0.2778	0.3938	0.2770	1.9676	0.5562	0.1084	1.4599	0.4288	0.6627	-1.1036	-0.2041	0.8477	1.2599	-0.2055	-0.4082	0.1468	0.7895	1.0101	-0.0879	1.3815	1.3198	0.3286	0.6792	0.2681	-0.2374	0.2473	0.2894	0.3865	0.2576	1.9690	0.5658	0.1273	1.4849	0.4177	0.6485	-1.1236	-0.2282	0.8777	1.2791	-0.2020	-0.4143	0.1346	0.7889	1.0281	-0.0803	1.4039	1.3050	0.3400	0.6615	0.2527	-0.2498	
0.1000	 1.16992621225699E-0003	2.0024	0.7742	0.6129	0.3905	0.0597	1.8204	0.6055	0.4737	2.0024	-0.0201	0.2800	-1.3736	-0.4162	1.3358	1.4958	-0.3536	-0.7924	0.2214	0.9769	1.3872	-0.0918	1.8017	1.1625	0.1735	0.3952	-0.1090	-0.6454	0.8226	0.6366	0.3756	0.0193	1.8235	0.6254	0.5121	2.0521	-0.0427	0.2506	-1.4142	-0.4656	1.3977	1.5352	-0.3469	-0.8057	0.1961	0.9754	1.4233	-0.0786	1.8481	1.1322	0.1979	0.3591	-0.1401	-0.6707	
0.1500	 2.58749166637321E-0003	2.5371	1.3216	0.9471	0.3881	-0.1556	1.6728	0.6548	0.8369	2.5371	-0.4669	-0.1012	-1.6413	-0.6260	1.8198	1.7302	-0.5016	-1.1742	0.2956	1.1640	1.7614	-0.0703	2.2182	1.0060	0.0183	0.1129	-0.4841	-1.0513	1.3929	0.9821	0.3654	-0.2161	1.6775	0.6842	0.8943	2.6110	-0.4996	-0.1450	-1.7020	-0.7002	1.9111	1.7887	-0.4917	-1.1945	0.2582	1.1612	1.8154	-0.0781	2.2867	0.9607	0.0557	0.0588	-0.5302	-1.0888	
0.2000	 4.45153005613556E-0003	3.0615	1.8609	1.2775	0.3859	-0.3682	1.5258	0.7029	1.1957	3.0615	-0.9084	-0.4790	-1.9045	-0.8322	2.2946	1.9602	-0.6495	-1.5531	0.3710	1.3491	2.1304	-0.0635	2.6273	0.8525	-0.1369	-0.1655	-0.8557	-1.4531	1.9546	1.3235	0.3557	-0.4482	1.5325	0.7426	1.2716	3.1581	-0.9508	-0.5362	-1.9844	-0.9298	2.4140	2.0373	-0.6360	-1.5787	0.3214	1.3452	2.2008	-0.1009	2.7162	0.7928	-0.0868	-0.2365	-0.9155	-1.5017	
