Arquivo: c:\arq\medidas\BBA_0603_073413\BBA_AMP09B_H.dat
Data: 0603	 Hora:  0836
Comentário: 
NomeParametro	 ValorParametro
Nmedias	5
PausaCorretora	3000
PausaShunt	2000
PausaLeitura	500
NumCiclos	3
 NPassosCor	9
DeltaShunt	1.50
TetaIni	-0.20
TetaFim	0.20
I[mA]	  74.0
ACH03B	DeltaPos^2	AMP09B	AMP01B_0	AMP02A_0	AMP02B_0	AMP03A_0	AMP03B_0	AMP04A_0	AMP04B_0	AMP05A_0	AMP05B_0	AMP06A_0	AMP06B_0	AMP07A_0	AMP07B_0	AMP08A_0	AMP08B_0	AMP09A_0	AMP09B_0	AMP10A_0	AMP10B_0	AMP11A_0	AMU11A_0	AMU11B_0	AMP11B_0	AMP12A_0	AMP12B_0	AMP01A_0	AMP01B_1	AMP02A_1	AMP02B_1	AMP03A_1	AMP03B_1	AMP04A_1	AMP04B_1	AMP05A_1	AMP05B_1	AMP06A_1	AMP06B_1	AMP07A_1	AMP07B_1	AMP08A_1	AMP08B_1	AMP09A_1	AMP09B_1	AMP10A_1	AMP10B_1	AMP11A_1	AMU11A_1	AMU11B_1	AMP11B_1	AMP12A_1	AMP12B_1	AMP01A_1	
-0.2000	 4.80251932169296E-0003	2.3185	-1.0767	1.2922	-1.7476	-2.2109	-2.6113	-0.3617	0.2887	-1.1182	-0.4013	-0.1390	-1.0906	1.5835	1.1746	-1.5099	-0.7487	2.0861	2.3185	-0.9246	-1.8421	0.0071	1.5815	2.2382	-3.1891	-0.6054	-1.6823	-0.8232	-0.9697	1.2329	-1.8027	-2.0928	-2.4828	-0.3913	0.2340	-1.0847	-0.3343	-0.1229	-1.1072	1.5193	1.1420	-1.4556	-0.7195	1.9630	2.2085	-0.9244	-1.8046	0.0229	1.6131	2.2405	-3.1369	-0.6516	-1.6976	-0.6977	
-0.1500	 2.81050644222570E-0003	1.7698	-1.0827	1.1179	-1.8037	-1.7420	-2.2216	-0.3594	0.1586	-1.2532	-0.3916	0.0449	-1.0273	1.1097	0.7925	-1.2461	-0.5257	1.5567	1.7698	-0.7347	-1.5873	-0.0026	1.2761	1.8343	-3.0086	-0.5994	-1.5414	-0.6857	-1.0014	1.0725	-1.8458	-1.6513	-2.1231	-0.3825	0.1170	-1.2276	-0.3405	0.0575	-1.0399	1.0598	0.7672	-1.2054	-0.5031	1.4621	1.6856	-0.7344	-1.5592	0.0191	1.3002	1.8361	-2.9686	-0.6343	-1.5535	-0.5900	
-0.1000	 1.30680308846010E-0003	1.2079	-1.0922	0.9422	-1.8591	-1.2636	-1.8250	-0.3562	0.0278	-1.3928	-0.3845	0.2323	-0.9613	0.6250	0.4008	-0.9781	-0.2987	1.0152	1.2079	-0.5407	-1.3279	-0.0010	0.9626	1.4201	-2.8258	-0.5916	-1.3970	-0.5495	-1.0368	0.9108	-1.8881	-1.2025	-1.7585	-0.3722	-0.0008	-1.3746	-0.3492	0.2405	-0.9701	0.5912	0.3847	-0.9508	-0.2838	0.9499	1.1504	-0.5406	-1.3089	0.0104	0.9793	1.4217	-2.7982	-0.6151	-1.4059	-0.4840	
-0.0500	 3.86504807316107E-0004	0.6382	-1.1047	0.7649	-1.9140	-0.7832	-1.4275	-0.3518	-0.1032	-1.5349	-0.3794	0.4215	-0.8943	0.1359	0.0054	-0.7082	-0.0697	0.4660	0.6382	-0.3444	-1.0666	-0.0246	0.6439	1.0004	-2.6416	-0.5817	-1.2513	-0.4146	-1.0753	0.7479	-1.9293	-0.7493	-1.3907	-0.3604	-0.1184	-1.5248	-0.3602	0.4259	-0.8992	0.1173	-0.0036	-0.6932	-0.0622	0.4300	0.6069	-0.3440	-1.0562	-0.0007	0.6526	1.0009	-2.6262	-0.5949	-1.2555	-0.3798	
0.0000	 7.15528351706462E-0006	0.0620	-1.1206	0.5880	-1.9675	-0.2994	-1.0282	-0.3455	-0.2335	-1.6798	-0.3770	0.6124	-0.8255	-0.3587	-0.3957	-0.4363	0.1612	-0.0895	0.0620	-0.1459	-0.8021	0.0101	0.3194	0.5730	-2.4568	-0.5710	-1.1024	-0.2823	-1.1171	0.5856	-1.9692	-0.2941	-1.0226	-0.3472	-0.2357	-1.6772	-0.3736	0.6124	-0.8266	-0.3603	-0.3958	-0.4344	0.1611	-0.0942	0.0585	-0.1464	-0.8014	-0.0060	0.3207	0.5736	-2.4537	-0.5724	-1.1029	-0.2781	
0.0500	 1.93757936637801E-0004	-0.4988	-1.1392	0.4172	-2.0173	0.1678	-0.6428	-0.3384	-0.3587	-1.8227	-0.3777	0.7979	-0.7572	-0.8397	-0.7871	-0.1714	0.3851	-0.6306	-0.4988	0.0476	-0.5451	-0.0028	0.0016	0.1548	-2.2774	-0.5584	-0.9572	-0.1572	-1.1606	0.4286	-2.0066	0.1464	-0.6673	-0.3334	-0.3480	-1.8276	-0.3896	0.7938	-0.7550	-0.8249	-0.7792	-0.1829	0.3782	-0.6043	-0.4742	0.0462	-0.5534	-0.0074	-0.0037	0.1558	-2.2867	-0.5497	-0.9538	-0.1821	
0.1000	 9.02651608194788E-0004	-1.0617	-1.1608	0.2463	-2.0668	0.6356	-0.2571	-0.3308	-0.4837	-1.9679	-0.3806	0.9847	-0.6877	-1.3220	-1.1807	0.0938	0.6104	-1.1733	-1.0617	0.2421	-0.2869	0.0060	-0.3200	-0.2670	-2.0977	-0.5450	-0.8096	-0.0342	-1.2056	0.2705	-2.0443	0.5871	-0.3114	-0.3195	-0.4612	-1.9797	-0.4075	0.9755	-0.6825	-1.2908	-1.1640	0.0689	0.5955	-1.1171	-1.0097	0.2395	-0.3055	0.0141	-0.3312	-0.2646	-2.1187	-0.5270	-0.8046	-0.0879	
0.1500	 2.06524393040606E-0003	-1.6232	-1.1827	0.0734	-2.1174	1.1039	0.1288	-0.3238	-0.6092	-2.1156	-0.3865	1.1710	-0.6183	-1.8030	-1.5759	0.3581	0.8346	-1.7154	-1.6232	0.4357	-0.0298	0.0032	-0.6424	-0.6894	-1.9177	-0.5323	-0.6635	0.0875	-1.2486	0.1079	-2.0856	1.0312	0.0472	-0.3093	-0.5773	-2.1330	-0.4274	1.1557	-0.6112	-1.7548	-1.5492	0.3183	0.8096	-1.6274	-1.5425	0.4302	-0.0599	0.0019	-0.6575	-0.6843	-1.9500	-0.5074	-0.6582	0.0086	
0.2000	 3.80948685408792E-0003	-2.1785	-1.2025	-0.1045	-2.1727	1.5722	0.5153	-0.3223	-0.7389	-2.2639	-0.3932	1.3548	-0.5502	-2.2782	-1.9685	0.6183	1.0547	-2.2520	-2.1785	0.6262	0.2226	-0.0043	-0.9621	-1.1090	-1.7375	-0.5245	-0.5215	0.2116	-1.2927	-0.0563	-2.1279	1.4717	0.4030	-0.3013	-0.6949	-2.2871	-0.4497	1.3350	-0.5375	-2.2141	-1.9336	0.5658	1.0228	-2.1349	-2.0714	0.6202	0.1837	-0.0099	-0.9835	-1.1034	-1.7822	-0.4893	-0.5133	0.1023	
