Arquivo: c:\arq\medidas\BBA_0603_073413\BBA_AMP06A_V.dat
Data: 0603	 Hora:  0811
Comentário: 
NomeParametro	 ValorParametro
Nmedias	5
PausaCorretora	3000
PausaShunt	2000
PausaLeitura	500
NumCiclos	3
 NPassosCor	9
DeltaShunt	3.00
TetaIni	-0.20
TetaFim	0.20
I[mA]	 120.8
ACV11A	DeltaPos^2	AMP06A	AMP01B_0	AMP02A_0	AMP02B_0	AMP03A_0	AMP03B_0	AMP04A_0	AMP04B_0	AMP05A_0	AMP05B_0	AMP06A_0	AMP06B_0	AMP07A_0	AMP07B_0	AMP08A_0	AMP08B_0	AMP09A_0	AMP09B_0	AMP10A_0	AMP10B_0	AMP11A_0	AMU11A_0	AMU11B_0	AMP11B_0	AMP12A_0	AMP12B_0	AMP01A_0	AMP01B_1	AMP02A_1	AMP02B_1	AMP03A_1	AMP03B_1	AMP04A_1	AMP04B_1	AMP05A_1	AMP05B_1	AMP06A_1	AMP06B_1	AMP07A_1	AMP07B_1	AMP08A_1	AMP08B_1	AMP09A_1	AMP09B_1	AMP10A_1	AMP10B_1	AMP11A_1	AMU11A_1	AMU11B_1	AMP11B_1	AMP12A_1	AMP12B_1	AMP01A_1	
-0.2000	 1.40268153091252E-0003	2.5989	-2.5190	-1.3715	0.4770	1.4524	2.6239	0.2406	-1.7478	-1.2730	2.7172	2.5989	0.2479	0.8328	-1.6144	0.0818	0.5738	1.5680	-0.2767	-0.1874	-0.9047	-0.0873	-0.7311	2.1644	0.9298	2.1181	2.1290	1.7497	-2.5636	-1.3898	0.5021	1.5047	2.6090	0.2108	-1.7884	-1.3189	2.7771	2.6374	0.2874	0.8781	-1.6780	0.0436	0.5747	1.5935	-0.2613	-0.1938	-0.9459	-0.0950	-0.7782	2.2015	0.8789	2.1590	2.1567	1.7661	
-0.1500	 8.53279284997893E-0004	2.2371	-2.0034	-1.0582	0.4648	1.2362	2.4969	0.2967	-1.3987	-0.7564	2.2907	2.2371	-0.0064	0.6383	-1.1522	0.3034	0.4256	1.1950	-0.1943	-0.0023	-0.5442	-0.0819	-0.3309	2.0131	0.8064	1.8538	1.7782	1.3705	-2.0391	-1.0730	0.4839	1.2764	2.4863	0.2740	-1.4302	-0.7926	2.3372	2.2672	0.0242	0.6736	-1.2019	0.2740	0.4266	1.2149	-0.1826	-0.0071	-0.5765	-0.0823	-0.3679	2.0427	0.7684	1.8851	1.8002	1.3839	
-0.1000	 3.82879448640593E-0004	1.8631	-1.4699	-0.7354	0.4529	1.0135	2.3650	0.3548	-1.0400	-0.2237	1.8497	1.8631	-0.2698	0.4354	-0.6735	0.5330	0.2754	0.8128	-0.1134	0.1863	-0.1729	-0.0702	0.0818	1.8564	0.6780	1.5786	1.4159	0.9800	-1.4941	-0.7453	0.4655	1.0404	2.3575	0.3385	-1.0610	-0.2479	1.8810	1.8834	-0.2493	0.4588	-0.7071	0.5132	0.2761	0.8261	-0.1057	0.1832	-0.1942	-0.0736	0.0577	1.8757	0.6529	1.5995	1.4308	0.9889	
-0.0500	 8.59323806949151E-0005	1.4814	-0.9257	-0.4061	0.4414	0.7879	2.2294	0.4109	-0.6745	0.3185	1.4009	1.4814	-0.5392	0.2264	-0.1845	0.7685	0.1252	0.4264	-0.0347	0.3760	0.2052	-0.0558	0.5027	1.6947	0.5457	1.2969	1.0461	0.5823	-0.9375	-0.4108	0.4477	0.8011	2.2256	0.4033	-0.6845	0.3073	1.4155	1.4911	-0.5296	0.2372	-0.2002	0.7591	0.1257	0.4327	-0.0312	0.3744	0.1953	-0.1038	0.4916	1.7041	0.5334	1.3071	1.0534	0.5864	
0.0000	 1.79055819579175E-0006	1.0939	-0.3720	-0.0723	0.4307	0.5603	2.0908	0.4676	-0.3041	0.8666	0.9450	1.0939	-0.8133	0.0120	0.3124	1.0090	-0.0259	0.0357	0.0415	0.5666	0.5890	-0.0792	0.9297	1.5300	0.4089	1.0094	0.6701	0.1787	-0.3709	-0.0713	0.4309	0.5594	2.0901	0.4681	-0.3023	0.8684	0.9436	1.0928	-0.8153	0.0102	0.3148	1.0100	-0.0251	0.0359	0.0400	0.5662	0.5908	-0.0988	0.9322	1.5291	0.4090	1.0082	0.6694	0.1781	
0.0500	 1.44280482635740E-0004	0.7030	0.1839	0.2645	0.4209	0.3320	1.9496	0.5246	0.0688	1.4169	0.4872	0.7030	-1.0896	-0.2048	0.8123	1.2499	-0.1764	-0.3554	0.1168	0.7576	0.9753	-0.0768	1.3583	1.3637	0.2697	0.7186	0.2909	-0.2270	0.1982	0.2714	0.4147	0.3170	1.9520	0.5326	0.0822	1.4321	0.4689	0.6906	-1.1029	-0.2201	0.8333	1.2627	-0.1759	-0.3623	0.1105	0.7589	0.9888	-0.0651	1.3743	1.3522	0.2820	0.7055	0.2816	-0.2332	
0.1000	 5.03530616298493E-0004	0.3122	0.7402	0.6009	0.4117	0.1041	1.8067	0.5804	0.4409	1.9655	0.0278	0.3122	-1.3656	-0.4230	1.3123	1.4915	-0.3270	-0.7469	0.1913	0.9480	1.3606	-0.0826	1.7868	1.1987	0.1283	0.4270	-0.0894	-0.6355	0.7678	0.6132	0.3993	0.0752	1.8128	0.5960	0.4655	1.9935	-0.0070	0.2888	-1.3905	-0.4509	1.3507	1.5152	-0.3260	-0.7600	0.1796	0.9506	1.3855	-0.0935	1.8166	1.1770	0.1528	0.4027	-0.1067	-0.6468	
0.1500	 1.06383233219987E-0003	-0.0765	1.2939	0.9365	0.4037	-0.1214	1.6636	0.6355	0.8105	2.5067	-0.4290	-0.0765	-1.6398	-0.6384	1.8066	1.7318	-0.4767	-1.1357	0.2654	1.1376	1.7422	-0.0942	2.2111	1.0344	-0.0144	0.1373	-0.4678	-1.0417	1.3330	0.9543	0.3854	-0.1639	1.6729	0.6584	0.8461	2.5471	-0.4798	-0.1104	-1.6757	-0.6797	1.8632	1.7658	-0.4755	-1.1551	0.2491	1.1414	1.7785	-0.0558	2.2540	1.0025	0.0225	0.1020	-0.4931	-1.0580	
0.2000	 1.76386477805099E-0003	-0.4615	1.8387	1.2681	0.3959	-0.3444	1.5212	0.6899	1.1753	3.0367	-0.8801	-0.4615	-1.9092	-0.8500	2.2917	1.9672	-0.6262	-1.5204	0.3409	1.3258	2.1184	-0.0688	2.6275	0.8731	-0.1568	-0.1485	-0.8418	-1.4427	1.8891	1.2904	0.3714	-0.3999	1.5337	0.7202	1.2214	3.0883	-0.9459	-0.5050	-1.9551	-0.9029	2.3640	2.0107	-0.6249	-1.5457	0.3197	1.3309	2.1647	-0.0776	2.6820	0.8316	-0.1073	-0.1943	-0.8740	-1.4632	
