Arquivo: c:\arq\medidas\BBA_0603_073413\BBA_AMP08B_H.dat
Data: 0603	 Hora:  0829
Comentário: 
NomeParametro	 ValorParametro
Nmedias	5
PausaCorretora	3000
PausaShunt	2000
PausaLeitura	500
NumCiclos	3
 NPassosCor	9
DeltaShunt	3.00
TetaIni	-0.20
TetaFim	0.20
I[mA]	  97.6
ACH01A	DeltaPos^2	AMP08B	AMP01B_0	AMP02A_0	AMP02B_0	AMP03A_0	AMP03B_0	AMP04A_0	AMP04B_0	AMP05A_0	AMP05B_0	AMP06A_0	AMP06B_0	AMP07A_0	AMP07B_0	AMP08A_0	AMP08B_0	AMP09A_0	AMP09B_0	AMP10A_0	AMP10B_0	AMP11A_0	AMU11A_0	AMU11B_0	AMP11B_0	AMP12A_0	AMP12B_0	AMP01A_0	AMP01B_1	AMP02A_1	AMP02B_1	AMP03A_1	AMP03B_1	AMP04A_1	AMP04B_1	AMP05A_1	AMP05B_1	AMP06A_1	AMP06B_1	AMP07A_1	AMP07B_1	AMP08A_1	AMP08B_1	AMP09A_1	AMP09B_1	AMP10A_1	AMP10B_1	AMP11A_1	AMU11A_1	AMU11B_1	AMP11B_1	AMP12A_1	AMP12B_1	AMP01A_1	
-0.2000	 3.46820060360349E-0003	-1.0328	-3.1625	0.8442	-1.2134	-0.2606	-1.5814	-0.9332	-0.2326	0.0436	0.8325	-0.5299	-1.6375	2.1699	2.0291	-1.4996	-1.0328	1.7669	2.3299	-0.4840	-1.6860	0.0300	0.4499	1.2352	-2.9188	-0.0307	-1.1480	-2.0418	-3.0551	0.7847	-1.2798	-0.1888	-1.4906	-0.9555	-0.2835	0.0251	0.8456	-0.5116	-1.6468	2.0756	1.9571	-1.4626	-1.0028	1.7419	2.2737	-0.5191	-1.6904	-0.0259	0.5130	1.2774	-2.8775	-0.0940	-1.1949	-1.9277	
-0.1500	 2.06141188632281E-0003	-0.7317	-2.6632	0.7776	-1.4000	-0.2585	-1.4355	-0.7865	-0.2350	-0.3852	0.5363	-0.2422	-1.4347	1.5396	1.4272	-1.2311	-0.7317	1.3033	1.7636	-0.3972	-1.4621	0.0132	0.4151	1.0673	-2.8003	-0.1640	-1.1345	-1.6039	-2.5801	0.7319	-1.4504	-0.2024	-1.3647	-0.8032	-0.2739	-0.4000	0.5466	-0.2278	-1.4415	1.4663	1.3708	-1.2022	-0.7080	1.2837	1.7204	-0.4236	-1.4651	0.0289	0.4632	1.0992	-2.7686	-0.2125	-1.1700	-1.5169	
-0.1000	 9.45240401672759E-0004	-0.4292	-2.1605	0.7118	-1.5862	-0.2572	-1.2902	-0.6385	-0.2359	-0.8161	0.2376	0.0464	-1.2306	0.9019	0.8172	-0.9608	-0.4292	0.8335	1.1916	-0.3087	-1.2364	-0.0220	0.3767	0.8952	-2.6819	-0.2964	-1.1185	-1.1659	-2.1044	0.6815	-1.6192	-0.2202	-1.2429	-0.6492	-0.2620	-0.8272	0.2438	0.0572	-1.2342	0.8507	0.7781	-0.9394	-0.4114	0.8181	1.1597	-0.3256	-1.2368	0.0162	0.4080	0.9150	-2.6602	-0.3288	-1.1420	-1.1075	
-0.0500	 2.60835925324756E-0004	-0.1264	-1.6563	0.6474	-1.7709	-0.2591	-1.1477	-0.4896	-0.2359	-1.2475	-0.0642	0.3345	-1.0257	0.2609	0.2043	-0.6891	-0.1264	0.3592	0.6139	-0.2178	-1.0090	-0.0189	0.3336	0.7181	-2.5642	-0.4266	-1.1008	-0.7301	-1.6278	0.6317	-1.7867	-0.2416	-1.1245	-0.4939	-0.2489	-1.2542	-0.0617	0.3422	-1.0262	0.2313	0.1815	-0.6758	-0.1154	0.3499	0.5954	-0.2262	-1.0074	0.0117	0.3493	0.7274	-2.5530	-0.4428	-1.1116	-0.7000	
0.0000	 1.05339372825243E-0005	0.1769	-1.1538	0.5852	-1.9529	-0.2654	-1.0096	-0.3393	-0.2336	-1.6792	-0.3681	0.6231	-0.8189	-0.3812	-0.4116	-0.4166	0.1769	-0.1186	0.0334	-0.1246	-0.7799	-0.0003	0.2856	0.5362	-2.4477	-0.5540	-1.0799	-0.2986	-1.1508	0.5835	-1.9529	-0.2624	-1.0059	-0.3381	-0.2349	-1.6821	-0.3688	0.6268	-0.8172	-0.3887	-0.4170	-0.4117	0.1814	-0.1217	0.0277	-0.1249	-0.7771	0.0095	0.2864	0.5354	-2.4463	-0.5552	-1.0799	-0.2954	
0.0500	 1.35658803703907E-0004	0.4773	-0.6549	0.5252	-2.1322	-0.2746	-0.8749	-0.1890	-0.2301	-2.1076	-0.6722	0.9082	-0.6133	-1.0187	-1.0231	-0.1459	0.4773	-0.5937	-0.5431	-0.0309	-0.5516	-0.0092	0.2345	0.3526	-2.3336	-0.6787	-1.0575	0.1256	-0.6769	0.5375	-2.1168	-0.2897	-0.8937	-0.1825	-0.2193	-2.1065	-0.6761	0.9086	-0.6091	-1.0047	-1.0120	-0.1493	0.4750	-0.5914	-0.5361	-0.0232	-0.5477	0.0014	0.2208	0.3419	-2.3418	-0.6648	-1.0466	0.1026	
0.1000	 5.71582316041345E-0004	0.7761	-0.1628	0.4673	-2.3075	-0.2864	-0.7445	-0.0381	-0.2243	-2.5319	-0.9764	1.1920	-0.4075	-1.6508	-1.6314	0.1248	0.7761	-1.0717	-1.1202	0.0658	-0.3221	-0.0019	0.1766	0.1626	-2.2207	-0.7987	-1.0317	0.5423	-0.2078	0.4921	-2.2786	-0.3160	-0.7818	-0.0277	-0.2033	-2.5259	-0.9822	1.1884	-0.4023	-1.6151	-1.6031	0.1124	0.7663	-1.0622	-1.0993	0.0804	-0.3185	-0.0079	0.1509	0.1443	-2.2376	-0.7729	-1.0113	0.4958	
0.1500	 1.33609351046980E-0003	1.0710	0.3234	0.4113	-2.4803	-0.3013	-0.6180	0.1118	-0.2173	-2.9522	-1.2796	1.4725	-0.2029	-2.2744	-2.2316	0.3927	1.0710	-1.5456	-1.6901	0.1630	-0.0945	-0.0238	0.1160	-0.0280	-2.1097	-0.9170	-1.0042	0.9520	0.2551	0.4487	-2.4371	-0.3470	-0.6754	0.1275	-0.1852	-2.9431	-1.2887	1.4646	-0.1956	-2.2185	-2.1883	0.3724	1.0561	-1.5294	-1.6566	0.1847	-0.0898	0.0137	0.0773	-0.0548	-2.1355	-0.8776	-0.9737	0.8815	
0.2000	 2.33329115346653E-0003	1.3629	0.8010	0.3573	-2.6492	-0.3183	-0.4956	0.2610	-0.2090	-3.3649	-1.5808	1.7494	-0.0001	-2.8857	-2.8214	0.6586	1.3629	-2.0154	-2.2529	0.2613	0.1317	0.0043	0.0508	-0.2224	-2.0006	-1.0313	-0.9742	1.3513	0.7116	0.4064	-2.5938	-0.3774	-0.5705	0.2802	-0.1671	-3.3509	-1.5919	1.7368	0.0080	-2.8084	-2.7616	0.6286	1.3395	-1.9915	-2.2055	0.2890	0.1354	0.0189	0.0013	-0.2554	-2.0357	-0.9797	-0.9362	1.2591	
