Arquivo: c:\arq\medidas\BBA_0603_073413\BBA_AMP03B_V.dat
Data: 0603	 Hora:  0751
Comentário: 
NomeParametro	 ValorParametro
Nmedias	5
PausaCorretora	3000
PausaShunt	2000
PausaLeitura	500
NumCiclos	3
 NPassosCor	9
DeltaShunt	1.50
TetaIni	-0.20
TetaFim	0.20
I[mA]	 122.4
ACV09B	DeltaPos^2	AMP03B	AMP01B_0	AMP02A_0	AMP02B_0	AMP03A_0	AMP03B_0	AMP04A_0	AMP04B_0	AMP05A_0	AMP05B_0	AMP06A_0	AMP06B_0	AMP07A_0	AMP07B_0	AMP08A_0	AMP08B_0	AMP09A_0	AMP09B_0	AMP10A_0	AMP10B_0	AMP11A_0	AMU11A_0	AMU11B_0	AMP11B_0	AMP12A_0	AMP12B_0	AMP01A_0	AMP01B_1	AMP02A_1	AMP02B_1	AMP03A_1	AMP03B_1	AMP04A_1	AMP04B_1	AMP05A_1	AMP05B_1	AMP06A_1	AMP06B_1	AMP07A_1	AMP07B_1	AMP08A_1	AMP08B_1	AMP09A_1	AMP09B_1	AMP10A_1	AMP10B_1	AMP11A_1	AMU11A_1	AMU11B_1	AMP11B_1	AMP12A_1	AMP12B_1	AMP01A_1	
-0.2000	 4.77535789060639E-0003	0.4403	0.6306	1.0309	1.6908	1.9871	0.4403	-0.7794	-0.2067	1.7504	1.3544	0.8307	-2.1784	-2.0935	2.0574	2.4080	0.9271	0.7014	-1.7248	-0.6888	-0.0433	-0.0755	0.8811	2.6324	-3.1440	1.4491	-0.1989	-1.4680	0.7252	1.1108	1.7488	2.0342	0.3505	-0.8594	-0.2475	1.7341	1.4371	0.8645	-2.2250	-2.1910	2.0985	2.4613	1.0038	0.7915	-1.8396	-0.7629	-0.0495	-0.0709	0.9167	2.6702	-3.3304	1.4458	-0.2717	-1.5793	
-0.1500	 2.98217579719890E-0003	0.8332	0.4118	0.7792	1.3889	1.6355	0.8332	-0.4772	-0.2179	1.5548	1.2387	0.8802	-1.8600	-1.5959	1.6571	2.0810	0.6927	0.5279	-1.2985	-0.3808	0.1207	-0.0919	0.9041	2.3617	-2.3063	1.3323	-0.0046	-1.0892	0.4866	0.8424	1.4346	1.6735	0.7629	-0.5406	-0.2499	1.5420	1.3038	0.9067	-1.8970	-1.6732	1.6900	2.1229	0.7534	0.5991	-1.3895	-0.4391	0.1156	-0.0624	0.9322	2.3916	-2.4552	1.3296	-0.0620	-1.1770	
-0.1000	 1.52889832950749E-0003	1.2357	0.1848	0.5185	1.0773	1.2741	1.2357	-0.1672	-0.2286	1.3544	1.1185	0.9301	-1.5325	-1.0832	1.2454	1.7437	0.4502	0.3473	-0.8572	-0.0638	0.2878	-0.0888	0.9260	2.0824	-1.4334	1.2134	0.1966	-0.6965	0.2380	0.5639	1.1102	1.3012	1.1855	-0.2124	-0.2513	1.3456	1.1647	0.9489	-1.5590	-1.1388	1.2689	1.7744	0.4936	0.3981	-0.9228	-0.1053	0.2842	-0.0722	0.9462	2.1040	-1.5414	1.2112	0.1556	-0.7596	
-0.0500	 5.22744715231422E-0004	1.6449	-0.0484	0.2518	0.7584	0.9060	1.6449	0.1495	-0.2386	1.1514	0.9939	0.9797	-1.1980	-0.5587	0.8250	1.3992	0.2014	0.1610	-0.4047	0.2604	0.4575	-0.0837	0.9469	1.7971	-0.5364	1.0921	0.4028	-0.2948	-0.0170	0.2783	0.7777	0.9218	1.6157	0.1234	-0.2518	1.1465	1.0211	0.9907	-1.2137	-0.5910	0.8390	1.4173	0.2269	0.1907	-0.4429	0.2361	0.4550	-0.0810	0.9588	1.8101	-0.5998	1.0905	0.3790	-0.3317	
0.0000	 3.59896416827321E-0005	2.0590	-0.2865	-0.0201	0.4341	0.5295	2.0590	0.4724	-0.2473	0.9470	0.8657	1.0287	-0.8590	-0.0258	0.3986	1.0493	-0.0524	-0.0304	0.0554	0.5898	0.6289	-0.0726	0.9674	1.5064	0.3767	0.9692	0.6126	0.1137	-0.2780	-0.0129	0.4393	0.5338	2.0515	0.4654	-0.2506	0.9462	0.8724	1.0318	-0.8630	-0.0340	0.4024	1.0536	-0.0456	-0.0227	0.0455	0.5834	0.6285	-0.0820	0.9706	1.5104	0.3606	0.9689	0.6066	0.1038	
0.0500	 1.26936580109035E-0004	2.4745	-0.5286	-0.2944	0.1061	0.1488	2.4745	0.7975	-0.2548	0.7420	0.7340	1.0768	-0.5166	0.5106	-0.0306	0.6949	-0.3094	-0.2248	0.5212	0.9229	0.8029	-0.0787	0.9875	1.2122	1.2962	0.8446	0.8243	0.5271	-0.5433	-0.3073	0.0963	0.1406	2.4891	0.8111	-0.2480	0.7451	0.7205	1.0711	-0.5087	0.5267	-0.0376	0.6869	-0.3215	-0.2393	0.5402	0.9348	0.8041	-0.0806	0.9822	1.2056	1.3277	0.8455	0.8363	0.5450	
0.1000	 8.18202442603205E-0004	2.8892	-0.7715	-0.5704	-0.2250	-0.2347	2.8892	1.1260	-0.2606	0.5382	0.6000	1.1234	-0.1731	1.0485	-0.4623	0.3400	-0.5669	-0.4208	0.9892	1.2580	0.9784	-0.0992	1.0088	0.9139	2.2129	0.7192	1.0369	0.9425	-0.8096	-0.6032	-0.2491	-0.2552	2.9251	1.1600	-0.2431	0.5456	0.5654	1.1093	-0.1536	1.0901	-0.4791	0.3178	-0.5983	-0.4576	1.0371	1.2882	0.9814	-0.0761	0.9948	0.8982	2.2910	0.7206	1.0671	0.9885	
0.1500	 2.07532794452823E-0003	3.3011	-1.0136	-0.8463	-0.5559	-0.6194	3.3011	1.4539	-0.2640	0.3363	0.4632	1.1683	0.1692	1.5855	-0.8923	-0.0148	-0.8249	-0.6168	1.4555	1.5927	1.1549	-0.0817	1.0319	0.6145	3.1168	0.5922	1.2499	1.3579	-1.0747	-0.8985	-0.5946	-0.6515	3.3577	1.5068	-0.2360	0.3485	0.4074	1.1453	0.2004	1.6504	-0.9193	-0.0503	-0.8758	-0.6759	1.5322	1.6408	1.1603	-0.0653	1.0100	0.5888	3.2394	0.5942	1.2974	1.4310	
0.2000	 3.85309423098122E-0003	3.7091	-1.2543	-1.1212	-0.8868	-1.0044	3.7091	1.7819	-0.2659	0.1369	0.3240	1.2114	0.5110	2.1192	-1.3208	-0.3695	-1.0831	-0.8122	1.9200	1.9255	1.3323	-0.0953	1.0567	0.3130	4.0035	0.4634	1.4607	1.7713	-1.3379	-1.1922	-0.9397	-1.0480	3.7855	1.8540	-0.2272	0.1542	0.2470	1.1796	0.5530	2.2077	-1.3567	-0.4174	-1.1518	-0.8933	2.0239	1.9919	1.3394	-0.0867	1.0263	0.2773	4.1660	0.4657	1.5251	1.8708	
