Arquivo: c:\arq\medidas\BBA_0603_073413\BBA_AMP07B_V.dat
Data: 0603	 Hora:  0823
Comentário: 
NomeParametro	 ValorParametro
Nmedias	5
PausaCorretora	3000
PausaShunt	2000
PausaLeitura	500
NumCiclos	3
 NPassosCor	9
DeltaShunt	1.50
TetaIni	-0.20
TetaFim	0.20
I[mA]	  98.4
ACV01B	DeltaPos^2	AMP07B	AMP01B_0	AMP02A_0	AMP02B_0	AMP03A_0	AMP03B_0	AMP04A_0	AMP04B_0	AMP05A_0	AMP05B_0	AMP06A_0	AMP06B_0	AMP07A_0	AMP07B_0	AMP08A_0	AMP08B_0	AMP09A_0	AMP09B_0	AMP10A_0	AMP10B_0	AMP11A_0	AMU11A_0	AMU11B_0	AMP11B_0	AMP12A_0	AMP12B_0	AMP01A_0	AMP01B_1	AMP02A_1	AMP02B_1	AMP03A_1	AMP03B_1	AMP04A_1	AMP04B_1	AMP05A_1	AMP05B_1	AMP06A_1	AMP06B_1	AMP07A_1	AMP07B_1	AMP08A_1	AMP08B_1	AMP09A_1	AMP09B_1	AMP10A_1	AMP10B_1	AMP11A_1	AMU11A_1	AMU11B_1	AMP11B_1	AMP12A_1	AMP12B_1	AMP01A_1	
-0.2000	 6.24142062404784E-0003	-2.0272	-2.4218	-1.6320	-0.5470	-0.1030	3.6463	1.3350	-1.1359	-0.9595	1.5378	2.0820	0.8286	2.1243	-2.0272	-0.5881	-0.5405	0.1944	1.3665	0.9022	-0.6836	-0.0613	-0.8457	2.4764	3.4641	2.2957	2.0165	1.4576	-2.5505	-1.7143	-0.5547	-0.0642	3.6882	1.3324	-1.2180	-1.0874	1.6348	2.1687	0.8995	2.1864	-2.1485	-0.6803	-0.5956	0.1628	1.4737	0.9484	-0.7358	-0.0416	-0.9374	2.5004	3.5206	2.3516	2.1054	1.5607	
-0.1500	 3.94085580059831E-0003	-1.4766	-1.9410	-1.2670	-0.3209	0.0467	3.2891	1.1359	-0.9393	-0.5309	1.3951	1.8496	0.4469	1.6380	-1.4766	-0.2135	-0.4293	0.1420	1.0687	0.8333	-0.3771	-0.0322	-0.4239	2.2493	2.7690	1.9922	1.7019	1.1611	-2.0439	-1.3324	-0.3274	0.0770	3.3226	1.1341	-1.0044	-0.6323	1.4716	1.9181	0.5036	1.6891	-1.5735	-0.2870	-0.4721	0.1175	1.1529	0.8701	-0.4190	-0.0402	-0.4969	2.2692	2.8153	2.0364	1.7724	1.2429	
-0.1000	 2.00235110679305E-0003	-0.9216	-1.4565	-0.9002	-0.0957	0.1939	2.9295	0.9377	-0.7398	-0.0980	1.2488	1.6139	0.0635	1.1511	-0.9216	0.1613	-0.3173	0.0898	0.7690	0.7646	-0.0700	-0.0535	-0.0008	2.0220	2.0663	1.6862	1.3841	0.8611	-1.5298	-0.9469	-0.1005	0.2153	2.9538	0.9366	-0.7859	-0.1704	1.3033	1.6632	0.1040	1.1864	-0.9911	0.1094	-0.3480	0.0725	0.8290	0.7897	-0.0999	-0.0574	-0.0529	2.0355	2.1000	1.7176	1.4345	0.9197	
-0.0500	 5.79759501400074E-0004	-0.3146	-0.9269	-0.5004	0.1481	0.3519	2.5367	0.7237	-0.5200	0.3753	1.0863	1.3551	-0.3545	0.6172	-0.3146	0.5702	-0.1962	0.0326	0.4426	0.6892	0.2648	-0.0499	0.4599	1.7733	1.2957	1.3504	1.0373	0.5337	-0.9666	-0.5254	0.1456	0.3633	2.5494	0.7232	-0.5448	0.3365	1.1157	1.3815	-0.3326	0.6371	-0.3522	0.5422	-0.2126	0.0237	0.4746	0.7035	0.2484	-0.0265	0.4321	1.7807	1.3132	1.3673	1.0642	0.5650	
0.0000	 8.15202729825537E-0006	0.2854	-0.4024	-0.1055	0.3873	0.5064	2.1464	0.5133	-0.3015	0.8430	0.9239	1.0974	-0.7677	0.0911	0.2854	0.9735	-0.0763	-0.0233	0.1204	0.6156	0.5946	-0.0595	0.9144	1.5274	0.5313	1.0176	0.6933	0.2107	-0.4075	-0.1083	0.3874	0.5084	2.1468	0.5131	-0.3048	0.8380	0.9277	1.1011	-0.7654	0.0933	0.2813	0.9697	-0.0782	-0.0242	0.1235	0.6169	0.5929	-0.0442	0.9114	1.5283	0.5318	1.0194	0.6965	0.2142	
0.0500	 3.38969318936080E-0004	0.8881	0.1212	0.2899	0.6260	0.6608	1.7531	0.3037	-0.0817	1.3124	0.7603	0.8380	-1.1815	-0.4378	0.8881	1.3771	0.0435	-0.0801	-0.2032	0.5422	0.9262	-0.0523	1.3681	1.2797	-0.2365	0.6820	0.3484	-0.1122	0.1509	0.3092	0.6291	0.6532	1.7417	0.3031	-0.0627	1.3419	0.7386	0.8181	-1.1987	-0.4539	0.9157	1.3989	0.0562	-0.0731	-0.2280	0.5318	0.9387	-0.0719	1.3899	1.2738	-0.2527	0.6683	0.3275	-0.1361	
0.1000	 1.56422157757244E-0003	1.4875	0.6431	0.6839	0.8659	0.8162	1.3578	0.0929	0.1385	1.7807	0.5956	0.5781	-1.5952	-0.9673	1.4875	1.7804	0.1634	-0.1372	-0.5257	0.4689	1.2577	-0.0705	1.8217	1.0311	-1.0066	0.3456	0.0042	-0.4347	0.7073	0.7252	0.8714	0.7991	1.3340	0.0927	0.1789	1.8438	0.5483	0.5348	-1.6315	-1.0005	1.5490	1.8268	0.1906	-0.1222	-0.5789	0.4465	1.2842	-0.0649	1.8676	1.0185	-1.0398	0.3162	-0.0404	-0.4860	
0.1500	 3.57785807390360E-0003	2.0863	1.1636	1.0768	1.1068	0.9731	0.9595	-0.1187	0.3582	2.2472	0.4312	0.3178	-2.0084	-1.4962	2.0863	2.1831	0.2831	-0.1950	-0.8487	0.3959	1.5892	-0.0682	2.2738	0.7792	-1.7759	0.0078	-0.3379	-0.7542	1.2606	1.1395	1.1148	0.9470	0.9235	-0.1191	0.4194	2.3424	0.3593	0.2525	-2.0631	-1.5466	2.1783	2.2524	0.3243	-0.1717	-0.9296	0.3613	1.6292	-0.0457	2.3431	0.7602	-1.8259	-0.0365	-0.4060	-0.8324	
0.2000	 6.26777926223887E-0003	2.6746	1.6738	1.4644	1.3460	1.1327	0.5635	-0.3302	0.5748	2.7051	0.2695	0.0612	-2.4162	-2.0187	2.6746	2.5798	0.4006	-0.2542	-1.1670	0.3243	1.9181	-0.0626	2.7185	0.5270	-2.5347	-0.3278	-0.6749	-1.0663	1.8019	1.5469	1.3563	1.0975	0.5156	-0.3305	0.6563	2.8306	0.1739	-0.0260	-2.4876	-2.0850	2.7965	2.6714	0.4559	-0.2224	-1.2745	0.2780	1.9705	-0.0765	2.8094	0.5020	-2.5995	-0.3865	-0.7652	-1.1696	
