Arquivo: c:\arq\medidas\BBA_0603_073413\BBA_AMP08A_V.dat
Data: 0603	 Hora:  0826
Comentário: 
NomeParametro	 ValorParametro
Nmedias	5
PausaCorretora	3000
PausaShunt	2000
PausaLeitura	500
NumCiclos	3
 NPassosCor	9
DeltaShunt	3.00
TetaIni	-0.20
TetaFim	0.20
I[mA]	  97.9
ACV07B	DeltaPos^2	AMP08A	AMP01B_0	AMP02A_0	AMP02B_0	AMP03A_0	AMP03B_0	AMP04A_0	AMP04B_0	AMP05A_0	AMP05B_0	AMP06A_0	AMP06B_0	AMP07A_0	AMP07B_0	AMP08A_0	AMP08B_0	AMP09A_0	AMP09B_0	AMP10A_0	AMP10B_0	AMP11A_0	AMU11A_0	AMU11B_0	AMP11B_0	AMP12A_0	AMP12B_0	AMP01A_0	AMP01B_1	AMP02A_1	AMP02B_1	AMP03A_1	AMP03B_1	AMP04A_1	AMP04B_1	AMP05A_1	AMP05B_1	AMP06A_1	AMP06B_1	AMP07A_1	AMP07B_1	AMP08A_1	AMP08B_1	AMP09A_1	AMP09B_1	AMP10A_1	AMP10B_1	AMP11A_1	AMU11A_1	AMU11B_1	AMP11B_1	AMP12A_1	AMP12B_1	AMP01A_1	
-0.2000	 1.91328102353585E-0003	-0.6094	-2.6418	-1.5485	0.2122	1.1173	2.9358	0.5106	-1.7077	-1.3719	2.5622	2.5906	0.4912	1.2517	-1.8573	-0.6094	-1.0570	-0.6256	1.9961	1.4440	-0.2710	-0.0619	-0.6501	1.8926	1.6507	1.9726	2.2514	2.0400	-2.7065	-1.5977	0.1904	1.1106	2.9758	0.5279	-1.7413	-1.4342	2.5932	2.6273	0.5389	1.3079	-1.9291	-0.6535	-1.0972	-0.6658	2.0626	1.4816	-0.2807	-0.0669	-0.6841	1.8847	1.7256	1.9882	2.2989	2.1045	
-0.1500	 1.09186907421803E-0003	-0.2285	-2.1075	-1.2009	0.2586	0.9769	2.7418	0.5061	-1.3727	-0.8415	2.1750	2.2358	0.1876	0.9702	-1.3434	-0.2285	-0.8234	-0.4847	1.5495	1.2474	-0.0607	-0.0678	-0.2722	1.8018	1.3710	1.7421	1.8795	1.6052	-2.1567	-1.2380	0.2426	0.9722	2.7721	0.5190	-1.3982	-0.8890	2.1985	2.2639	0.2239	1.0124	-1.3984	-0.2621	-0.8533	-0.5134	1.5994	1.2750	-0.0688	-0.0409	-0.2986	1.7973	1.4274	1.7549	1.9157	1.6534	
-0.1000	 4.14877052404495E-0004	0.1735	-1.5405	-0.8337	0.3088	0.8303	2.5359	0.5009	-1.0196	-0.2809	1.7663	1.8604	-0.1346	0.6692	-0.7978	0.1735	-0.5779	-0.3382	1.0782	1.0410	0.1630	-0.0408	0.1271	1.7046	1.0728	1.4971	1.4858	1.1450	-1.5712	-0.8565	0.2991	0.8276	2.5544	0.5089	-1.0354	-0.3103	1.7808	1.8776	-0.1119	0.6953	-0.8317	0.1526	-0.5960	-0.3552	1.1087	1.0578	0.1574	-0.0387	0.1108	1.7024	1.1075	1.5054	1.5081	1.1749	
-0.0500	 4.44741538529962E-0005	0.5795	-0.9672	-0.4624	0.3606	0.6843	2.3257	0.4942	-0.6638	0.2847	1.3548	1.4810	-0.4612	0.3628	-0.2448	0.5795	-0.3323	-0.1924	0.6026	0.8340	0.3890	-0.0450	0.5307	1.6051	0.7689	1.2484	1.0877	0.6799	-0.9773	-0.4699	0.3576	0.6836	2.3321	0.4968	-0.6686	0.2749	1.3600	1.4873	-0.4536	0.3714	-0.2561	0.5730	-0.3379	-0.1974	0.6125	0.8393	0.3872	-0.0597	0.5255	1.6048	0.7797	1.2515	1.0951	0.6893	
0.0000	 5.40888191623427E-0005	0.9922	-0.3828	-0.0853	0.4138	0.5376	2.1108	0.4866	-0.3025	0.8567	0.9375	1.0958	-0.7940	0.0491	0.3175	0.9922	-0.0829	-0.0457	0.1205	0.6247	0.6190	-0.0817	0.9401	1.5033	0.4577	0.9949	0.6823	0.2079	-0.3720	-0.0771	0.4179	0.5385	2.1040	0.4839	-0.2963	0.8670	0.9323	1.0899	-0.8019	0.0398	0.3295	0.9991	-0.0762	-0.0390	0.1088	0.6186	0.6209	-0.0603	0.9464	1.5048	0.4449	0.9918	0.6745	0.1971	
0.0500	 4.83344648578919E-0004	1.4069	0.2050	0.2955	0.4686	0.3899	1.8922	0.4782	0.0618	1.4326	0.5176	0.7063	-1.1302	-0.2693	0.8844	1.4069	0.1687	0.1018	-0.3662	0.4144	0.8519	-0.0669	1.3517	1.3996	0.1416	0.7374	0.2721	-0.2679	0.2375	0.3200	0.4796	0.3932	1.8722	0.4700	0.0790	1.4639	0.5021	0.6873	-1.1539	-0.2975	0.9214	1.4297	0.1883	0.1208	-0.3996	0.3964	0.8578	-0.0595	1.3697	1.4029	0.1040	0.7283	0.2485	-0.2998	
0.1000	 1.29120166466228E-0003	1.8231	0.7949	0.6766	0.5237	0.2425	1.6717	0.4693	0.4264	2.0078	0.0947	0.3154	-1.4665	-0.5892	1.4520	1.8231	0.4215	0.2501	-0.8553	0.2024	1.0855	-0.0692	1.7645	1.2965	-0.1768	0.4779	-0.1398	-0.7470	0.8482	0.7169	0.5420	0.2479	1.6380	0.4553	0.4546	2.0589	0.0690	0.2848	-1.5057	-0.6351	1.5111	1.8596	0.4534	0.2812	-0.9101	0.1725	1.0954	-0.0503	1.7944	1.3017	-0.2387	0.4644	-0.1788	-0.7994	
0.1500	 2.45888913109393E-0003	2.2338	1.3783	1.0550	0.5791	0.0963	1.4521	0.4615	0.7888	2.5745	-0.3255	-0.0723	-1.7991	-0.9045	2.0117	2.2338	0.6730	0.3998	-1.3407	-0.0093	1.3171	-0.0258	2.1724	1.1940	-0.4933	0.2213	-0.5477	-1.2211	1.4524	1.1108	0.6041	0.1032	1.4055	0.4419	0.8273	2.6443	-0.3612	-0.1151	-1.8529	-0.9681	2.0933	2.2842	0.7175	0.4424	-1.4159	-0.0505	1.3295	-0.0383	2.2132	1.2010	-0.5786	0.2021	-0.6022	-1.2932	
0.2000	 3.88190377506659E-0003	2.6381	1.9545	1.4292	0.6336	-0.0495	1.2339	0.4533	1.1472	3.1307	-0.7424	-0.4578	-2.1262	-1.2143	2.5609	2.6381	0.9242	0.5510	-1.8217	-0.2210	1.5442	-0.0411	2.5735	1.0935	-0.8063	-0.0331	-0.9520	-1.6897	2.0467	1.4994	0.6651	-0.0405	1.1749	0.4285	1.1963	3.2180	-0.7874	-0.5117	-2.1939	-1.2938	2.6629	2.7014	0.9803	0.6058	-1.9161	-0.2733	1.5605	-0.0846	2.6243	1.1025	-0.9143	-0.0567	-1.0205	-1.7807	
