Arquivo: c:\arq\medidas\BBA_0603_073413\BBA_AMP03A_V.dat
Data: 0603	 Hora:  0747
Comentário: 
NomeParametro	 ValorParametro
Nmedias	5
PausaCorretora	3000
PausaShunt	2000
PausaLeitura	500
NumCiclos	3
 NPassosCor	9
DeltaShunt	1.50
TetaIni	-0.20
TetaFim	0.20
I[mA]	 122.8
ACV09A	DeltaPos^2	AMP03A	AMP01B_0	AMP02A_0	AMP02B_0	AMP03A_0	AMP03B_0	AMP04A_0	AMP04B_0	AMP05A_0	AMP05B_0	AMP06A_0	AMP06B_0	AMP07A_0	AMP07B_0	AMP08A_0	AMP08B_0	AMP09A_0	AMP09B_0	AMP10A_0	AMP10B_0	AMP11A_0	AMU11A_0	AMU11B_0	AMP11B_0	AMP12A_0	AMP12B_0	AMP01A_0	AMP01B_1	AMP02A_1	AMP02B_1	AMP03A_1	AMP03B_1	AMP04A_1	AMP04B_1	AMP05A_1	AMP05B_1	AMP06A_1	AMP06B_1	AMP07A_1	AMP07B_1	AMP08A_1	AMP08B_1	AMP09A_1	AMP09B_1	AMP10A_1	AMP10B_1	AMP11A_1	AMU11A_1	AMU11B_1	AMP11B_1	AMP12A_1	AMP12B_1	AMP01A_1	
-0.2000	 2.66685768285514E-0003	-1.4071	-0.0879	-0.3967	-0.8567	-1.4071	3.3704	1.8343	0.4544	1.2342	-0.5516	0.4506	-0.0513	1.6604	-0.3145	0.1285	-1.3581	-1.6845	0.8959	1.5624	1.8552	-0.0886	1.9197	0.0268	3.5982	-0.1046	0.6607	0.8854	-0.1184	-0.4388	-0.9177	-1.4864	3.3956	1.8802	0.5107	1.2952	-0.6389	0.3960	-0.0517	1.6931	-0.2905	0.1220	-1.4128	-1.7679	0.9648	1.6191	1.8939	-0.0725	1.9347	-0.0328	3.6791	-0.1355	0.6903	0.9513	
-0.1500	 1.55369707837233E-0003	-0.9584	-0.1318	-0.3074	-0.5565	-0.9584	3.0675	1.5167	0.2888	1.1643	-0.2181	0.5876	-0.2387	1.2693	-0.1496	0.3425	-1.0537	-1.2985	0.7013	1.3376	1.5723	-0.0856	1.6999	0.3713	2.8623	0.1450	0.6475	0.7035	-0.1543	-0.3391	-0.6031	-1.0193	3.0866	1.5522	0.3320	1.2109	-0.2848	0.5457	-0.2393	1.2937	-0.1309	0.3378	-1.0954	-1.3625	0.7539	1.3807	1.6019	-0.0872	1.7114	0.3258	2.9244	0.1213	0.6694	0.7532	
-0.1000	 7.11378757053191E-0004	-0.5006	-0.1783	-0.2180	-0.2512	-0.5006	2.7583	1.1946	0.1197	1.0921	0.1218	0.7273	-0.4282	0.8705	0.0162	0.5595	-0.7430	-0.9039	0.5034	1.1083	1.2830	-0.0938	1.4744	0.7221	2.1038	0.3986	0.6356	0.5205	-0.1932	-0.2391	-0.2826	-0.5423	2.7715	1.2184	0.1489	1.1236	0.0765	0.6994	-0.4287	0.8872	0.0289	0.5563	-0.7714	-0.9473	0.5389	1.1374	1.3035	-0.1056	1.4825	0.6913	2.1466	0.3825	0.6500	0.5536	
-0.0500	 1.79471744691608E-0004	-0.0368	-0.2275	-0.1287	0.0576	-0.0368	2.4445	0.8673	-0.0522	1.0180	0.4658	0.8696	-0.6190	0.4685	0.1821	0.7775	-0.4285	-0.5022	0.3032	0.8752	0.9888	-0.0789	1.2456	1.0762	1.3288	0.6565	0.6248	0.3373	-0.2345	-0.1392	0.0418	-0.0574	2.4508	0.8790	-0.0373	1.0339	0.4430	0.8552	-0.6195	0.4765	0.1890	0.7760	-0.4428	-0.5245	0.3206	0.8899	0.9993	-0.0603	1.2500	1.0605	1.3497	0.6475	0.6316	0.3535	
0.0000	 1.07700052715982E-0007	0.4320	-0.2782	-0.0397	0.3688	0.4320	2.1268	0.5374	-0.2251	0.9430	0.8118	1.0132	-0.8106	0.0629	0.3483	0.9968	-0.1111	-0.0976	0.1015	0.6404	0.6915	-0.0825	1.0146	1.4320	0.5421	0.9160	0.6159	0.1538	-0.2779	-0.0396	0.3686	0.4313	2.1264	0.5373	-0.2248	0.9429	0.8112	1.0129	-0.8109	0.0628	0.3481	0.9967	-0.1112	-0.0980	0.1016	0.6405	0.6915	-0.0918	1.0146	1.4317	0.5418	0.9154	0.6152	0.1534	
0.0500	 1.80176680618901E-0004	0.9001	-0.3317	0.0475	0.6788	0.9001	1.8082	0.2076	-0.3978	0.8679	1.1576	1.1568	-1.0018	-0.3421	0.5131	1.2157	0.2066	0.3077	-0.0995	0.4057	0.3928	-0.0944	0.7811	1.7885	-0.2459	1.1761	0.6079	-0.0275	-0.3238	0.0584	0.6948	0.9204	1.8002	0.1950	-0.4122	0.8523	1.1799	1.1706	-1.0020	-0.3508	0.5070	1.2173	0.2206	0.3291	-0.1177	0.3906	0.3824	-0.0829	0.7771	1.8037	-0.2691	1.1835	0.6000	-0.0449	
0.1000	 7.17975547944850E-0004	1.3733	-0.3882	0.1356	0.9942	1.3733	1.4829	-0.1277	-0.5737	0.7918	1.5086	1.3026	-1.1957	-0.7546	0.6807	1.4368	0.5288	0.7187	-0.3025	0.1676	0.0879	-0.1066	0.5415	2.1492	-1.0472	1.4398	0.6010	-0.2103	-0.3731	0.1573	1.0255	1.4142	1.4677	-0.1518	-0.6027	0.7604	1.5529	1.3303	-1.1956	-0.7717	0.6675	1.4403	0.5573	0.7629	-0.3385	0.1377	0.0672	-0.0674	0.5334	2.1798	-1.0922	1.4555	0.5858	-0.2446	
0.1500	 1.61235448011560E-0003	1.8530	-0.4478	0.2231	1.3124	1.8530	1.1529	-0.4670	-0.7511	0.7151	1.8618	1.4493	-1.3926	-1.1715	0.8508	1.6618	0.8546	1.1352	-0.5060	-0.0729	-0.2225	-0.0976	0.2970	2.5134	-1.8544	1.7080	0.5956	-0.3938	-0.4252	0.2554	1.3593	1.9144	1.1311	-0.5031	-0.7952	0.6675	1.9289	1.4916	-1.3923	-1.1968	0.8318	1.6666	0.8972	1.2008	-0.5601	-0.1175	-0.2527	-0.0832	0.2846	2.5587	-1.9209	1.7317	0.5728	-0.4451	
0.2000	 2.81536768303688E-0003	2.3284	-0.5100	0.3086	1.6277	2.3284	0.8226	-0.8046	-0.9271	0.6399	2.2112	1.5946	-1.5887	-1.5861	1.0208	1.8852	1.1779	1.5476	-0.7061	-0.3110	-0.5314	-0.1106	0.0515	2.8736	-2.6501	1.9743	0.5919	-0.5741	-0.4801	0.3512	1.6900	2.4090	0.7943	-0.8524	-0.9854	0.5765	2.2998	1.6507	-1.5879	-1.6190	0.9949	1.8908	1.2344	1.6343	-0.7774	-0.3699	-0.5724	-0.0948	0.0350	2.9331	-2.7358	2.0059	0.5622	-0.6417	
