Arquivo: c:\arq\medidas\BBA_0406_072001\BBA_AMP06B_V.dat
Data: 0406	 Hora:  0755
Comentário: 
NomeParametro	 ValorParametro
Nmedias	5
PausaCorretora	3000
PausaShunt	2000
PausaLeitura	500
NumCiclos	3
 NPassosCor	7
DeltaShunt	3.00
TetaIni	-0.10
TetaFim	0.10
I[mA]	 124.8
ACV09B	DeltaPos^2	AMP06B	AMP01B_0	AMP02A_0	AMP02B_0	AMP03A_0	AMP03B_0	AMP03C_0	AMP04A_0	AMP04B_0	AMP05A_0	AMP05B_0	AMP06A_0	AMP06B_0	AMP07A_0	AMP07B_0	AMP08A_0	AMP08B_0	AMP09A_0	AMP09B_0	AMP10A_0	AMP10B_0	AMU11A_0	AMU11B_0	AMP12A_0	AMP12B_0	AMP01A_0	AMP01B_1	AMP02A_1	AMP02B_1	AMP03A_1	AMP03B_1	AMP03C_1	AMP04A_1	AMP04B_1	AMP05A_1	AMP05B_1	AMP06A_1	AMP06B_1	AMP07A_1	AMP07B_1	AMP08A_1	AMP08B_1	AMP09A_1	AMP09B_1	AMP10A_1	AMP10B_1	AMU11A_1	AMU11B_1	AMP12A_1	AMP12B_1	AMP01A_1	
-0.1000	 2.40031324848786E-0004	-1.4556	0.1110	0.4603	1.0380	1.2330	1.3959	-1.2247	-0.1230	-0.2606	1.2817	1.1678	0.9875	-1.4556	-0.9849	1.1263	1.6639	0.4196	0.3432	-0.8125	-0.0469	0.2582	0.8750	2.0744	1.2550	0.2587	-0.6125	0.1357	0.4764	1.0411	1.2272	1.3865	-1.2386	-0.1235	-0.2453	1.3064	1.1511	0.9712	-1.4714	-1.0090	1.1480	1.6807	0.4306	0.3503	-0.8330	-0.0565	0.2670	0.8914	2.0718	1.2454	0.2418	-0.6328	
-0.0667	 8.76615121747888E-0005	-1.2511	-0.0253	0.3014	0.8440	1.0109	1.6408	-0.6854	0.0651	-0.2725	1.1517	1.0986	1.0226	-1.2511	-0.6668	0.8665	1.4534	0.2718	0.2362	-0.5411	0.1508	0.3707	0.8988	1.8932	1.1667	0.3779	-0.3729	-0.0104	0.3113	0.8459	1.0072	1.6357	-0.6933	0.0650	-0.2628	1.1667	1.0887	1.0124	-1.2604	-0.6812	0.8801	1.4637	0.2784	0.2403	-0.5535	0.1453	0.3763	0.9088	1.8918	1.1609	0.3678	-0.3853	
-0.0333	 8.53694949491830E-0006	-1.0427	-0.1649	0.1392	0.6466	0.7833	1.8902	-0.1340	0.2574	-0.2843	1.0196	1.0278	1.0574	-1.0427	-0.3423	0.6024	1.2392	0.1208	0.1265	-0.2642	0.3523	0.4853	0.9228	1.7081	1.0768	0.4996	-0.1281	-0.1600	0.1425	0.6473	0.7820	1.8888	-0.1360	0.2574	-0.2810	1.0244	1.0250	1.0543	-1.0454	-0.3463	0.6068	1.2424	0.1228	0.1275	-0.2680	0.3506	0.4872	0.9262	1.7078	1.0754	0.4965	-0.1321	
0.0000	 1.05462495905442E-0005	-0.8323	-0.3064	-0.0250	0.4473	0.5535	2.1405	0.4215	0.4511	-0.2958	0.8865	0.9560	1.0924	-0.8323	-0.0154	0.3361	1.0217	-0.0318	0.0149	0.0151	0.5558	0.6008	0.9469	1.5208	0.9860	0.6223	0.1187	-0.3109	-0.0280	0.4465	0.5539	2.1433	0.4254	0.4515	-0.2985	0.8821	0.9599	1.0954	-0.8285	-0.0094	0.3322	1.0190	-0.0344	0.0127	0.0196	0.5583	0.5992	0.9438	1.5217	0.9884	0.6261	0.1226	
0.0333	 9.94639821905021E-0005	-0.6207	-0.4491	-0.1899	0.2465	0.3217	2.3919	0.9796	0.6463	-0.3067	0.7537	0.8830	1.1269	-0.6207	0.3132	0.0682	0.8039	-0.1856	-0.0972	0.2971	0.7609	0.7167	0.9708	1.3319	0.8946	0.7457	0.3675	-0.4645	-0.2001	0.2441	0.3243	2.3987	0.9900	0.6472	-0.3159	0.7388	0.8943	1.1370	-0.6101	0.3298	0.0551	0.7930	-0.1929	-0.1024	0.3106	0.7674	0.7119	0.9609	1.3342	0.9014	0.7568	0.3803	
0.0667	 2.64700617515472E-0004	-0.4090	-0.5921	-0.3551	0.0443	0.0893	2.6419	1.5367	0.8418	-0.3170	0.6213	0.8093	1.1609	-0.4090	0.6415	-0.1996	0.5852	-0.3394	-0.2094	0.5786	0.9663	0.8336	0.9950	1.1427	0.8025	0.8693	0.6170	-0.6173	-0.3719	0.0409	0.0940	2.6527	1.5525	0.8430	-0.3325	0.5963	0.8276	1.1778	-0.3920	0.6686	-0.2216	0.5680	-0.3513	-0.2179	0.6007	0.9764	0.8254	0.9786	1.1459	0.8135	0.8872	0.6378	
0.1000	 5.01422682169998E-0004	-0.1981	-0.7342	-0.5197	-0.1570	-0.1432	2.8907	2.0894	1.0372	-0.3267	0.4897	0.7351	1.1946	-0.1981	0.9688	-0.4673	0.3676	-0.4928	-0.3218	0.8597	1.1705	0.9502	1.0201	0.9526	0.7111	0.9925	0.8658	-0.7690	-0.5428	-0.1619	-0.1365	2.9054	2.1110	1.0388	-0.3481	0.4550	0.7599	1.2176	-0.1748	1.0058	-0.4971	0.3436	-0.5089	-0.3335	0.8900	1.1849	0.9388	0.9971	0.9568	0.7259	1.0170	0.8948	
