Arquivo: c:\arq\medidas\BBA_0406_072001\BBA_AMP12A_H.dat
Data: 0406	 Hora:  0828
Comentário: 
NomeParametro	 ValorParametro
Nmedias	5
PausaCorretora	3000
PausaShunt	2000
PausaLeitura	500
NumCiclos	3
 NPassosCor	7
DeltaShunt	3.00
TetaIni	-0.10
TetaFim	0.10
I[mA]	  31.5
ACH05B	DeltaPos^2	AMP12A	AMP01B_0	AMP02A_0	AMP02B_0	AMP03A_0	AMP03B_0	AMP03C_0	AMP04A_0	AMP04B_0	AMP05A_0	AMP05B_0	AMP06A_0	AMP06B_0	AMP07A_0	AMP07B_0	AMP08A_0	AMP08B_0	AMP09A_0	AMP09B_0	AMP10A_0	AMP10B_0	AMU11A_0	AMU11B_0	AMP12A_0	AMP12B_0	AMP01A_0	AMP01B_1	AMP02A_1	AMP02B_1	AMP03A_1	AMP03B_1	AMP03C_1	AMP04A_1	AMP04B_1	AMP05A_1	AMP05B_1	AMP06A_1	AMP06B_1	AMP07A_1	AMP07B_1	AMP08A_1	AMP08B_1	AMP09A_1	AMP09B_1	AMP10A_1	AMP10B_1	AMU11A_1	AMU11B_1	AMP12A_1	AMP12B_1	AMP01A_1	
-0.1000	 2.70232966446935E-0004	-1.0161	-0.3072	0.6548	-2.3377	-0.5955	-1.0577	-2.3160	0.0260	-0.0445	-2.7567	-1.2742	0.6687	-0.4336	-0.3065	-0.6393	-0.7059	0.1746	0.6182	0.5725	-0.6347	-1.1044	1.3309	1.6188	-1.0161	-1.5500	0.2983	-0.3318	0.6499	-2.3336	-0.5873	-1.0580	-2.3195	0.0111	-0.0530	-2.7292	-1.2522	0.6487	-0.4503	-0.2763	-0.6084	-0.7209	0.1554	0.6302	0.5922	-0.6383	-1.1158	1.3191	1.6136	-1.0084	-1.5406	0.2792	
-0.0667	 1.10819257412721E-0004	-0.8956	-0.5724	0.6637	-2.2487	-0.5262	-1.0748	-2.3626	-0.0854	-0.0745	-2.4634	-1.0386	0.6515	-0.5194	-0.3437	-0.5971	-0.6232	0.1888	0.3878	0.3981	-0.4957	-0.9980	1.0292	1.3118	-0.8956	-1.4081	0.0982	-0.5867	0.6600	-2.2473	-0.5197	-1.0738	-2.3646	-0.0956	-0.0805	-2.4462	-1.0244	0.6384	-0.5306	-0.3246	-0.5765	-0.6328	0.1760	0.3967	0.4118	-0.4986	-1.0057	1.0234	1.3103	-0.8913	-1.4025	0.0879	
-0.0333	 2.67910073283959E-0005	-0.7736	-0.8408	0.6732	-2.1585	-0.4564	-1.0926	-2.4098	-0.1983	-0.1043	-2.1664	-0.8005	0.6341	-0.6060	-0.3817	-0.5541	-0.5391	0.2034	0.1551	0.2221	-0.3557	-0.8905	0.7232	1.0007	-0.7736	-1.2648	-0.1040	-0.8458	0.6702	-2.1591	-0.4517	-1.0901	-2.4099	-0.2038	-0.1081	-2.1583	-0.7932	0.6276	-0.6120	-0.3729	-0.5441	-0.5442	0.1970	0.1606	0.2295	-0.3578	-0.8949	0.7230	1.0025	-0.7727	-1.2630	-0.1058	
0.0000	 7.05610500510405E-0007	-0.6511	-1.1095	0.6830	-2.0680	-0.3876	-1.1113	-2.4570	-0.3107	-0.1339	-1.8684	-0.5628	0.6170	-0.6923	-0.4202	-0.5117	-0.4555	0.2180	-0.0781	0.0449	-0.2154	-0.7830	0.4162	0.6882	-0.6511	-1.1216	-0.3079	-1.1090	0.6823	-2.0689	-0.3863	-1.1098	-2.4566	-0.3112	-0.1345	-1.8683	-0.5622	0.6167	-0.6926	-0.4209	-0.5117	-0.4555	0.2180	-0.0777	0.0455	-0.2157	-0.7833	0.4180	0.6899	-0.6517	-1.1217	-0.3062	
0.0333	 2.90469499057092E-0005	-0.5268	-1.3809	0.6934	-1.9758	-0.3191	-1.1314	-2.5054	-0.4241	-0.1631	-1.5668	-0.3232	0.5994	-0.7794	-0.4590	-0.4694	-0.3705	0.2329	-0.3134	-0.1333	-0.0739	-0.6743	0.1050	0.3714	-0.5268	-0.9762	-0.5155	-1.3736	0.6944	-1.9776	-0.3200	-1.1298	-2.5038	-0.4195	-0.1612	-1.5749	-0.3292	0.6060	-0.7741	-0.4698	-0.4790	-0.3654	0.2393	-0.3180	-0.1402	-0.0728	-0.6706	0.1100	0.3738	-0.5298	-0.9792	-0.5081	
0.0667	 1.13796765111800E-0004	-0.4011	-1.6537	0.7052	-1.8816	-0.2528	-1.1541	-2.5546	-0.5366	-0.1915	-1.2657	-0.0853	0.5826	-0.8652	-0.4970	-0.4277	-0.2853	0.2485	-0.5499	-0.3126	0.0684	-0.5649	-0.2084	0.0522	-0.4011	-0.8293	-0.7262	-1.6389	0.7067	-1.8862	-0.2541	-1.1501	-2.5513	-0.5279	-0.1875	-1.2810	-0.0960	0.5954	-0.8553	-0.5190	-0.4470	-0.2758	0.2609	-0.5582	-0.3260	0.0699	-0.5581	-0.1979	0.0576	-0.4078	-0.8367	-0.7110	
0.1000	 2.45836156854956E-0004	-0.2743	-1.9256	0.7179	-1.7865	-0.1886	-1.1786	-2.6045	-0.6476	-0.2187	-0.9675	0.1495	0.5658	-0.9498	-0.5353	-0.3871	-0.1998	0.2642	-0.7849	-0.4910	0.2107	-0.4554	-0.5218	-0.2666	-0.2743	-0.6823	-0.9385	-1.9036	0.7194	-1.7944	-0.1891	-1.1710	-2.5988	-0.6358	-0.2140	-0.9868	0.1365	0.5851	-0.9362	-0.5685	-0.4148	-0.1862	0.2823	-0.7981	-0.5118	0.2122	-0.4457	-0.5057	-0.2586	-0.2855	-0.6942	-0.9147	
