Arquivo: c:\arq\medidas\BBA_0406_072001\BBA_AMP02B_V.dat
Data: 0406	 Hora:  0727
Comentário: 
NomeParametro	 ValorParametro
Nmedias	5
PausaCorretora	3000
PausaShunt	2000
PausaLeitura	500
NumCiclos	3
 NPassosCor	7
DeltaShunt	3.00
TetaIni	-0.10
TetaFim	0.10
I[mA]	 126.9
ACV09B	DeltaPos^2	AMP02B	AMP01B_0	AMP02A_0	AMP02B_0	AMP03A_0	AMP03B_0	AMP03C_0	AMP04A_0	AMP04B_0	AMP05A_0	AMP05B_0	AMP06A_0	AMP06B_0	AMP07A_0	AMP07B_0	AMP08A_0	AMP08B_0	AMP09A_0	AMP09B_0	AMP10A_0	AMP10B_0	AMU11A_0	AMU11B_0	AMP12A_0	AMP12B_0	AMP01A_0	AMP01B_1	AMP02A_1	AMP02B_1	AMP03A_1	AMP03B_1	AMP03C_1	AMP04A_1	AMP04B_1	AMP05A_1	AMP05B_1	AMP06A_1	AMP06B_1	AMP07A_1	AMP07B_1	AMP08A_1	AMP08B_1	AMP09A_1	AMP09B_1	AMP10A_1	AMP10B_1	AMU11A_1	AMU11B_1	AMP12A_1	AMP12B_1	AMP01A_1	
-0.1000	 4.37582493090650E-0004	1.0069	0.0805	0.4287	1.0069	1.2003	1.4106	-1.1827	-0.1069	-0.2578	1.2727	1.1283	0.9684	-1.4464	-0.9595	1.1270	1.6527	0.3892	0.3023	-0.7729	-0.0176	0.2706	0.8728	2.0508	1.2469	0.2839	-0.5678	0.1047	0.4506	1.0262	1.2293	1.3890	-1.2315	-0.1275	-0.2688	1.2674	1.1503	0.9785	-1.4578	-0.9818	1.1348	1.6657	0.4108	0.3262	-0.8027	-0.0372	0.2674	0.8815	2.0620	1.2460	0.2644	-0.5980	
-0.0667	 2.29665182821930E-0004	0.8101	-0.0609	0.2657	0.8101	0.9755	1.6637	-0.6275	0.0886	-0.2650	1.1459	1.0530	1.0003	-1.2394	-0.6361	0.8656	1.4393	0.2374	0.1909	-0.4952	0.1838	0.3835	0.8951	1.8672	1.1588	0.4071	-0.3220	-0.0428	0.2818	0.8244	0.9964	1.6475	-0.6630	0.0736	-0.2723	1.1429	1.0681	1.0070	-1.2479	-0.6522	0.8716	1.4498	0.2529	0.2072	-0.5167	0.1702	0.3823	0.9021	1.8750	1.1577	0.3924	-0.3439	
-0.0333	 8.05270200933914E-0005	0.6097	-0.2052	0.0994	0.6097	0.7458	1.9205	-0.0614	0.2874	-0.2720	1.0173	0.9757	1.0321	-1.0290	-0.3071	0.5995	1.2225	0.0825	0.0760	-0.2124	0.3890	0.4985	0.9178	1.6798	1.0689	0.5322	-0.0719	-0.1939	0.1098	0.6184	0.7581	1.9103	-0.0825	0.2792	-0.2756	1.0167	0.9837	1.0356	-1.0341	-0.3163	0.6037	1.2290	0.0914	0.0851	-0.2249	0.3818	0.4986	0.9231	1.6835	1.0668	0.5229	-0.0850	
0.0000	 1.00177548297148E-0005	0.4076	-0.3516	-0.0689	0.4076	0.5132	2.1789	0.5091	0.4883	-0.2783	0.8881	0.8967	1.0638	-0.8160	0.0249	0.3316	1.0029	-0.0744	-0.0401	0.0730	0.5966	0.6148	0.9402	1.4900	0.9777	0.6583	0.1809	-0.3470	-0.0648	0.4107	0.5171	2.1739	0.5024	0.4860	-0.2784	0.8899	0.8979	1.0639	-0.8182	0.0223	0.3340	1.0062	-0.0717	-0.0393	0.0694	0.5951	0.6162	0.9437	1.4903	0.9752	0.6548	0.1761	
0.0333	 1.55813802389658E-0005	0.2035	-0.4993	-0.2380	0.2035	0.2789	2.4374	1.0826	0.6903	-0.2846	0.7588	0.8170	1.0951	-0.6023	0.3581	0.0623	0.7825	-0.2325	-0.1573	0.3610	0.8052	0.7315	0.9626	1.2989	0.8864	0.7853	0.4356	-0.5017	-0.2398	0.2011	0.2742	2.4387	1.0903	0.6946	-0.2805	0.7627	0.8109	1.0921	-0.6012	0.3626	0.0625	0.7816	-0.2362	-0.1645	0.3664	0.8100	0.7346	0.9644	1.2952	0.8832	0.7870	0.4400	
0.0667	 9.88323161939814E-0005	-0.0018	-0.6472	-0.4075	-0.0018	0.0435	2.6955	1.6546	0.8932	-0.2899	0.6296	0.7363	1.1261	-0.3881	0.6917	-0.2077	0.5617	-0.3906	-0.2754	0.6491	1.0144	0.8485	0.9851	1.1066	0.7947	0.9129	0.6912	-0.6565	-0.4155	-0.0096	0.0304	2.7025	1.6766	0.9035	-0.2822	0.6361	0.7233	1.1197	-0.3840	0.7030	-0.2095	0.5563	-0.4005	-0.2900	0.6635	1.0251	0.8536	0.9852	1.0989	0.7910	0.9199	0.7045	
0.1000	 2.59453760187221E-0004	-0.2071	-0.7952	-0.5771	-0.2071	-0.1921	2.9531	2.2237	1.0965	-0.2948	0.5011	0.6552	1.1565	-0.1741	1.0255	-0.4778	0.3403	-0.5487	-0.3934	0.9372	1.2238	0.9666	1.0085	0.9135	0.7026	1.0404	0.9470	-0.8110	-0.5911	-0.2205	-0.2144	2.9655	2.2593	1.1129	-0.2829	0.5101	0.6346	1.1468	-0.1667	1.0435	-0.4815	0.3312	-0.5654	-0.4160	0.9607	1.2409	0.9732	1.0069	0.9017	0.6983	1.0528	0.9687	
