Arquivo: c:\arq\medidas\BBA_0406_072001\BBA_AMP04B_V.dat
Data: 0406	 Hora:  0743
Comentário: 
NomeParametro	 ValorParametro
Nmedias	5
PausaCorretora	3000
PausaShunt	2000
PausaLeitura	500
NumCiclos	3
 NPassosCor	7
DeltaShunt	3.00
TetaIni	-0.10
TetaFim	0.10
I[mA]	 125.9
ACV11A	DeltaPos^2	AMP04B	AMP01B_0	AMP02A_0	AMP02B_0	AMP03A_0	AMP03B_0	AMP03C_0	AMP04A_0	AMP04B_0	AMP05A_0	AMP05B_0	AMP06A_0	AMP06B_0	AMP07A_0	AMP07B_0	AMP08A_0	AMP08B_0	AMP09A_0	AMP09B_0	AMP10A_0	AMP10B_0	AMU11A_0	AMU11B_0	AMP12A_0	AMP12B_0	AMP01A_0	AMP01B_1	AMP02A_1	AMP02B_1	AMP03A_1	AMP03B_1	AMP03C_1	AMP04A_1	AMP04B_1	AMP05A_1	AMP05B_1	AMP06A_1	AMP06B_1	AMP07A_1	AMP07B_1	AMP08A_1	AMP08B_1	AMP09A_1	AMP09B_1	AMP10A_1	AMP10B_1	AMU11A_1	AMU11B_1	AMP12A_1	AMP12B_1	AMP01A_1	
-0.1000	 2.59079437295844E-0004	-1.0036	-1.3561	-0.6641	0.4555	0.9622	2.4186	0.7168	0.3540	-1.0036	-0.1679	1.8111	1.8178	-0.3331	0.3570	-0.5770	0.5903	0.2680	0.7624	-0.1563	0.1867	-0.1027	0.1672	1.7996	1.5389	1.3282	0.8897	-1.3710	-0.6679	0.4687	0.9866	2.4098	0.6875	0.3397	-1.0197	-0.1937	1.8295	1.8361	-0.3184	0.3699	-0.6013	0.5777	0.2734	0.7787	-0.1570	0.1797	-0.1201	0.1501	1.8170	1.5561	1.3362	0.8910	
-0.0667	 1.14822110522943E-0004	-0.7780	-1.0263	-0.4660	0.4452	0.8228	2.3392	0.6433	0.3923	-0.7780	0.1649	1.5289	1.5824	-0.4883	0.2464	-0.2876	0.7240	0.1645	0.5146	-0.0904	0.3130	0.1266	0.4180	1.7046	1.3594	1.1075	0.6522	-1.0367	-0.4688	0.4538	0.8394	2.3345	0.6249	0.3830	-0.7886	0.1476	1.5415	1.5950	-0.4785	0.2547	-0.3036	0.7154	0.1685	0.5259	-0.0907	0.3081	0.1153	0.4068	1.7163	1.3711	1.1133	0.6535	
-0.0333	 2.67496767701238E-0005	-0.5479	-0.6895	-0.2643	0.4346	0.6810	2.2588	0.5694	0.4315	-0.5479	0.5032	1.2411	1.3436	-0.6464	0.1336	0.0067	0.8603	0.0599	0.2626	-0.0239	0.4411	0.3602	0.6737	1.6075	1.1766	0.8824	0.4103	-0.6955	-0.2662	0.4386	0.6891	2.2570	0.5607	0.4270	-0.5535	0.4947	1.2476	1.3496	-0.6417	0.1370	-0.0006	0.8568	0.0617	0.2687	-0.0245	0.4390	0.3554	0.6686	1.6128	1.1820	0.8856	0.4118	
0.0000	 1.04241919883095E-0006	-0.3161	-0.3496	-0.0606	0.4245	0.5378	2.1761	0.4936	0.4705	-0.3161	0.8432	0.9505	1.1011	-0.8066	0.0184	0.3045	0.9982	-0.0452	0.0090	0.0420	0.5698	0.5963	0.9311	1.5093	0.9912	0.6548	0.1666	-0.3506	-0.0614	0.4240	0.5380	2.1786	0.4953	0.4714	-0.3163	0.8435	0.9506	1.1013	-0.8070	0.0173	0.3057	0.9992	-0.0449	0.0095	0.0415	0.5701	0.5980	0.9325	1.5082	0.9902	0.6554	0.1680	
0.0333	 3.77585511533642E-0005	-0.0836	-0.0088	0.1444	0.4144	0.3945	2.0932	0.4167	0.5096	-0.0836	1.1846	0.6594	0.8577	-0.9673	-0.0975	0.6031	1.1370	-0.1506	-0.2450	0.1081	0.6992	0.8339	1.1891	1.4102	0.8048	0.4260	-0.0777	-0.0053	0.1447	0.4091	0.3864	2.0991	0.4291	0.5154	-0.0783	1.1939	0.6533	0.8519	-0.9727	-0.1033	0.6129	1.1424	-0.1518	-0.2497	0.1075	0.7019	0.8410	1.1966	1.4031	0.7979	0.4241	-0.0767	
0.0667	 1.40901672495312E-0004	0.1497	0.3317	0.3495	0.4046	0.2515	2.0098	0.3389	0.5482	0.1497	1.5260	0.3671	0.6136	-1.1283	-0.2136	0.9026	1.2756	-0.2558	-0.4996	0.1735	0.8285	1.0704	1.4470	1.3117	0.6181	0.1967	-0.3233	0.3403	0.3507	0.3948	0.2346	2.0196	0.3618	0.5595	0.1605	1.5441	0.3542	0.6017	-1.1389	-0.2244	0.9206	1.2860	-0.2588	-0.5094	0.1730	0.8333	1.0847	1.4608	1.2979	0.6050	0.1921	-0.3225	
0.1000	 3.00076032231640E-0004	0.3812	0.6713	0.5530	0.3950	0.1085	1.9262	0.2612	0.5869	0.3812	1.8649	0.0756	0.3709	-1.2883	-0.3291	1.1994	1.4141	-0.3605	-0.7529	0.2388	0.9571	1.3060	1.7041	1.2137	0.4322	-0.0317	-0.5687	0.6843	0.5554	0.3808	0.0841	1.9390	0.2942	0.6030	0.3974	1.8913	0.0568	0.3532	-1.3041	-0.3451	1.2264	1.4287	-0.3651	-0.7683	0.2379	0.9642	1.3267	1.7239	1.1942	0.4129	-0.0389	-0.5679	
