Arquivo: c:\arq\medidas\BBA_1906_071854\BBA_AMP10B_V.dat
Data: 1906	 Hora:  0819
Comentário: 
NomeParametro	 ValorParametro
Nmedias	5
PausaCorretora	3000
PausaShunt	2000
PausaLeitura	500
NumCiclos	3
 NPassosCor	7
DeltaShunt	3.00
TetaIni	-0.10
TetaFim	0.10
I[mA]	  32.1
ACV01B	DeltaPos^2	AMP10B	AMP01B_0	AMP02A_0	AMP02B_0	AMP03A_0	AMP03B_0	AMP03C_0	AMP04A_0	AMP04B_0	AMP05A_0	AMP05B_0	AMP06A_0	AMP06B_0	AMP07A_0	AMP07B_0	AMP08A_0	AMP08B_0	AMP09A_0	AMP09B_0	AMP10A_0	AMP10B_0	AMU11A_0	AMU11B_0	AMP12A_0	AMP12B_0	AMP01A_0	AMP01B_1	AMP02A_1	AMP02B_1	AMP03A_1	AMP03B_1	AMP03C_1	AMP04A_1	AMP04B_1	AMP05A_1	AMP05B_1	AMP06A_1	AMP06B_1	AMP07A_1	AMP07B_1	AMP08A_1	AMP08B_1	AMP09A_1	AMP09B_1	AMP10A_1	AMP10B_1	AMU11A_1	AMU11B_1	AMP12A_1	AMP12B_1	AMP01A_1	
-0.1000	 2.03846339226781E-0004	-0.0216	-1.3488	-0.8018	-0.0235	0.2429	2.9178	1.9386	0.8581	-0.7479	-0.0617	1.2980	1.6224	0.0007	1.0536	-0.8575	0.2181	-0.2830	0.1068	0.6916	0.7285	-0.0216	0.0756	1.9734	1.6673	1.2986	0.7698	-1.3691	-0.8109	-0.0159	0.2617	2.9181	1.9251	0.8490	-0.7642	-0.0824	1.3216	1.6386	0.0063	1.0553	-0.8724	0.2142	-0.2713	0.1283	0.6812	0.7169	-0.0366	0.0581	1.9897	1.6840	1.3104	0.7789	
-0.0667	 7.98531698563062E-0005	0.1867	-1.0154	-0.5547	0.1205	0.3283	2.6810	1.4776	0.7362	-0.5985	0.2474	1.1790	1.4496	-0.2625	0.7232	-0.4716	0.4741	-0.2099	0.0664	0.4886	0.6832	0.1867	0.3632	1.8178	1.4441	1.0839	0.5679	-1.0283	-0.5603	0.1251	0.3400	2.6832	1.4701	0.7312	-0.6087	0.2344	1.1938	1.4599	-0.2585	0.7258	-0.4814	0.4718	-0.2029	0.0801	0.4832	0.6765	0.1776	0.3534	1.8293	1.4548	1.0915	0.5740	
-0.0333	 1.25356092988184E-0005	0.3938	-0.6827	-0.3085	0.2632	0.4127	2.4455	1.0174	0.6154	-0.4489	0.5555	1.0598	1.2771	-0.5245	0.3946	-0.0872	0.7296	-0.1374	0.0265	0.2873	0.6380	0.3938	0.6497	1.6629	1.2221	0.8700	0.3676	-0.6877	-0.3107	0.2646	0.4174	2.4485	1.0152	0.6137	-0.4530	0.5505	1.0656	1.2813	-0.5226	0.3969	-0.0911	0.7282	-0.1347	0.0317	0.2860	0.6358	0.3904	0.6478	1.6687	1.2266	0.8730	0.3696	
0.0000	 8.54668844590263E-0006	0.6119	-0.3318	-0.0491	0.4131	0.5015	2.1956	0.5307	0.4883	-0.2913	0.8795	0.9333	1.0946	-0.8007	0.0477	0.3179	0.9988	-0.0605	-0.0155	0.0744	0.5903	0.6119	0.9511	1.4989	0.9867	0.6445	0.1564	-0.3284	-0.0475	0.4116	0.4992	2.1993	0.5345	0.4905	-0.2886	0.8833	0.9297	1.0921	-0.8012	0.0499	0.3207	0.9992	-0.0626	-0.0190	0.0779	0.5936	0.6152	0.9576	1.4988	0.9844	0.6425	0.1548	
0.0333	 7.03149462183000E-0005	0.8267	0.0120	0.2060	0.5600	0.5886	1.9492	0.0533	0.3635	-0.1354	1.1995	0.8088	0.9143	-1.0724	-0.2938	0.7167	1.2631	0.0146	-0.0575	-0.1341	0.5441	0.8267	1.2463	1.3359	0.7547	0.4229	-0.0500	0.0236	0.2110	0.5555	0.5792	1.9538	0.0622	0.3694	-0.1263	1.2120	0.7963	0.9052	-1.0747	-0.2921	0.7257	1.2647	0.0079	-0.0691	-0.1265	0.5526	0.8365	1.2608	1.3311	0.7463	0.4161	-0.0556	
0.0667	 1.92758955209391E-0004	1.0428	0.3556	0.4606	0.7075	0.6759	1.7015	-0.4269	0.2384	0.0202	1.5193	0.6838	0.7331	-1.3438	-0.6363	1.1161	1.5275	0.0899	-0.0996	-0.3429	0.4980	1.0428	1.5422	1.1736	0.5221	0.2010	-0.2565	0.3754	0.4691	0.7004	0.6601	1.7076	-0.4128	0.2481	0.0354	1.5401	0.6627	0.7184	-1.3482	-0.6349	1.1315	1.5308	0.0790	-0.1195	-0.3316	0.5108	1.0585	1.5656	1.1637	0.5074	0.1898	-0.2658	
0.1000	 3.54398422964352E-0004	1.2579	0.6966	0.7135	0.8547	0.7635	1.4541	-0.9051	0.1138	0.1751	1.8369	0.5594	0.5534	-1.6136	-0.9773	1.5124	1.7903	0.1649	-0.1421	-0.5507	0.4522	1.2579	1.8362	1.0106	0.2906	-0.0189	-0.4614	0.7243	0.7246	0.8449	0.7427	1.4616	-0.8854	0.1263	0.1954	1.8661	0.5311	0.5335	-1.6192	-0.9767	1.5347	1.7943	0.1502	-0.1688	-0.5363	0.4695	1.2772	1.8685	0.9972	0.2704	-0.0337	-0.4743	
