Arquivo: c:\arq\medidas\BBA_1906_071854\BBA_AMP10A_V.dat
Data: 1906	 Hora:  0816
Comentário: 
NomeParametro	 ValorParametro
Nmedias	5
PausaCorretora	3000
PausaShunt	2000
PausaLeitura	500
NumCiclos	3
 NPassosCor	7
DeltaShunt	3.00
TetaIni	-0.10
TetaFim	0.10
I[mA]	  32.8
ACV11A	DeltaPos^2	AMP10A	AMP01B_0	AMP02A_0	AMP02B_0	AMP03A_0	AMP03B_0	AMP03C_0	AMP04A_0	AMP04B_0	AMP05A_0	AMP05B_0	AMP06A_0	AMP06B_0	AMP07A_0	AMP07B_0	AMP08A_0	AMP08B_0	AMP09A_0	AMP09B_0	AMP10A_0	AMP10B_0	AMU11A_0	AMU11B_0	AMP12A_0	AMP12B_0	AMP01A_0	AMP01B_1	AMP02A_1	AMP02B_1	AMP03A_1	AMP03B_1	AMP03C_1	AMP04A_1	AMP04B_1	AMP05A_1	AMP05B_1	AMP06A_1	AMP06B_1	AMP07A_1	AMP07B_1	AMP08A_1	AMP08B_1	AMP09A_1	AMP09B_1	AMP10A_1	AMP10B_1	AMU11A_1	AMU11B_1	AMP12A_1	AMP12B_1	AMP01A_1	
-0.1000	 2.24809808018298E-0004	0.1865	-1.4564	-0.6979	0.5039	1.0557	2.4033	0.6349	0.3001	-1.0795	-0.2532	1.9262	1.9090	-0.2710	0.4241	-0.6691	0.5384	0.2687	0.8019	-0.1050	0.1865	-0.1795	0.0728	1.8673	1.6241	1.3862	0.9346	-1.4568	-0.6920	0.5187	1.0770	2.3880	0.5964	0.2852	-1.0855	-0.2542	1.9408	1.9140	-0.2810	0.4048	-0.6597	0.5496	0.2833	0.8186	-0.1278	0.1726	-0.1926	0.0640	1.8845	1.6366	1.3840	0.9241	
-0.0667	 1.17898503613919E-0004	0.3144	-1.0908	-0.4848	0.4789	0.8819	2.3306	0.5892	0.3569	-0.8249	0.1160	1.6075	1.6456	-0.4465	0.2963	-0.3448	0.6914	0.1653	0.5405	-0.0525	0.3144	0.0778	0.3593	1.7474	1.4165	1.1444	0.6806	-1.0916	-0.4810	0.4897	0.8975	2.3196	0.5619	0.3459	-0.8296	0.1147	1.6188	1.6499	-0.4535	0.2827	-0.3383	0.6996	0.1762	0.5526	-0.0690	0.3044	0.0681	0.3526	1.7603	1.4255	1.1430	0.6734	
-0.0333	 4.40761340767588E-0005	0.4438	-0.7175	-0.2681	0.4532	0.7048	2.2564	0.5428	0.4142	-0.5657	0.4915	1.2833	1.3775	-0.6253	0.1652	-0.0144	0.8477	0.0609	0.2747	-0.0001	0.4438	0.3398	0.6507	1.6247	1.2050	0.8986	0.4228	-0.7186	-0.2662	0.4599	0.7145	2.2501	0.5263	0.4077	-0.5690	0.4902	1.2904	1.3804	-0.6289	0.1578	-0.0110	0.8524	0.0674	0.2828	-0.0102	0.4377	0.3334	0.6467	1.6334	1.2110	0.8985	0.4188	
0.0000	 4.90631936086043E-0006	0.5739	-0.3412	-0.0497	0.4280	0.5260	2.1811	0.4953	0.4719	-0.3046	0.8684	0.9553	1.1064	-0.8058	0.0328	0.3188	1.0058	-0.0441	0.0073	0.0518	0.5739	0.6036	0.9438	1.5013	0.9907	0.6501	0.1632	-0.3424	-0.0493	0.4298	0.5296	2.1802	0.4905	0.4697	-0.3062	0.8674	0.9587	1.1078	-0.8062	0.0313	0.3192	1.0068	-0.0421	0.0100	0.0488	0.5718	0.6011	0.9427	1.5051	0.9935	0.6510	0.1625	
0.0333	 5.55483505984731E-0006	0.7051	0.0350	0.1695	0.4020	0.3464	2.1061	0.4492	0.5302	-0.0422	1.2474	0.6271	0.8338	-0.9861	-0.0995	0.6522	1.1636	-0.1500	-0.2609	0.1052	0.7051	0.8680	1.2367	1.3766	0.7760	0.4016	-0.0963	0.0334	0.1676	0.4002	0.3443	2.1097	0.4553	0.5321	-0.0426	1.2461	0.6270	0.8347	-0.9834	-0.0954	0.6496	1.1612	-0.1518	-0.2625	0.1085	0.7065	0.8685	1.2383	1.3764	0.7759	0.4032	-0.0938	
0.0667	 4.51256749729577E-0005	0.8361	0.4096	0.3876	0.3764	0.1672	2.0307	0.4027	0.5882	0.2192	1.6241	0.2980	0.5620	-1.1657	-0.2318	0.9853	1.3210	-0.2555	-0.5289	0.1585	0.8361	1.1315	1.5286	1.2533	0.5617	0.1532	-0.3558	0.4077	0.3836	0.3700	0.1590	2.0398	0.4207	0.5948	0.2204	1.6232	0.2942	0.5619	-1.1596	-0.2213	0.9795	1.3146	-0.2614	-0.5354	0.1681	0.8417	1.1361	1.5331	1.2489	0.5584	0.1561	-0.3502	
0.1000	 1.19041373164378E-0004	0.9665	0.7816	0.6036	0.3509	-0.0115	1.9560	0.3567	0.6457	0.4784	1.9969	-0.0291	0.2922	-1.3436	-0.3625	1.3140	1.4762	-0.3606	-0.7950	0.2121	0.9665	1.3930	1.8175	1.1310	0.3493	-0.0929	-0.6140	0.7797	0.5978	0.3404	-0.0255	1.9694	0.3855	0.6565	0.4813	1.9960	-0.0370	0.2911	-1.3343	-0.3460	1.3065	1.4662	-0.3707	-0.8068	0.2284	0.9757	1.4006	1.8252	1.1222	0.3425	-0.0893	-0.6051	
