Arquivo: c:\arq\medidas\BBA_1505_071958\BBA_AMP10B_V.dat
Data: 1505	 Hora:  0820
Comentário: 
NomeParametro	 ValorParametro
Nmedias	5
PausaCorretora	3000
PausaShunt	2000
PausaLeitura	500
NumCiclos	3
 NPassosCor	7
DeltaShunt	3.00
TetaIni	-0.10
TetaFim	0.10
I[mA]	  33.4
ACV01B	DeltaPos^2	AMP10B	AMP01B_0	AMP02A_0	AMP02B_0	AMP03A_0	AMP03B_0	AMP03C_0	AMP04A_0	AMP04B_0	AMP05A_0	AMP05B_0	AMP06A_0	AMP06B_0	AMP07A_0	AMP07B_0	AMP08A_0	AMP08B_0	AMP09A_0	AMP09B_0	AMP10A_0	AMP10B_0	AMU11A_0	AMU11B_0	AMP12A_0	AMP12B_0	AMP01A_0	AMP01B_1	AMP02A_1	AMP02B_1	AMP03A_1	AMP03B_1	AMP03C_1	AMP04A_1	AMP04B_1	AMP05A_1	AMP05B_1	AMP06A_1	AMP06B_1	AMP07A_1	AMP07B_1	AMP08A_1	AMP08B_1	AMP09A_1	AMP09B_1	AMP10A_1	AMP10B_1	AMU11A_1	AMU11B_1	AMP12A_1	AMP12B_1	AMP01A_1	
-0.1000	 2.21352208799999E-0004	-0.0121	-1.3184	-0.7860	-0.0260	0.2315	2.8582	1.9425	0.8640	-0.7349	-0.0423	1.2754	1.6073	-0.0091	1.0436	-0.8383	0.2303	-0.2820	0.1051	0.6888	0.7304	-0.0121	0.0899	1.9702	1.6588	1.2830	0.7528	-1.3404	-0.7963	-0.0191	0.2501	2.8596	1.9312	0.8558	-0.7520	-0.0645	1.2999	1.6248	-0.0024	1.0465	-0.8550	0.2256	-0.2704	0.1269	0.6792	0.7186	-0.0281	0.0715	1.9867	1.6767	1.2963	0.7632	
-0.0667	 9.48161787001191E-0005	0.1907	-0.9976	-0.5474	0.1147	0.3164	2.6280	1.4941	0.7451	-0.5918	0.2557	1.1626	1.4414	-0.2635	0.7239	-0.4653	0.4781	-0.2127	0.0638	0.4946	0.6884	0.1907	0.3690	1.8170	1.4415	1.0771	0.5608	-1.0124	-0.5543	0.1186	0.3284	2.6304	1.4880	0.7400	-0.6029	0.2410	1.1786	1.4526	-0.2588	0.7273	-0.4766	0.4744	-0.2056	0.0777	0.4893	0.6809	0.1804	0.3578	1.8290	1.4535	1.0860	0.5682	
-0.0333	 1.93566130919556E-0005	0.4006	-0.6650	-0.3006	0.2592	0.4038	2.3896	1.0288	0.6223	-0.4432	0.5636	1.0447	1.2693	-0.5270	0.3938	-0.0791	0.7342	-0.1406	0.0213	0.2938	0.6442	0.4006	0.6577	1.6588	1.2165	0.8635	0.3622	-0.6720	-0.3038	0.2603	0.4089	2.3930	1.0274	0.6209	-0.4481	0.5572	1.0518	1.2742	-0.5243	0.3968	-0.0842	0.7323	-0.1377	0.0270	0.2926	0.6419	0.3961	0.6542	1.6654	1.2224	0.8680	0.3661	
0.0000	 4.53779361566844E-0006	0.6130	-0.3271	-0.0498	0.4053	0.4921	2.1463	0.5548	0.4979	-0.2917	0.8762	0.9243	1.0933	-0.7946	0.0580	0.3132	0.9943	-0.0671	-0.0216	0.0893	0.5994	0.6130	0.9503	1.4975	0.9873	0.6467	0.1608	-0.3259	-0.0496	0.4037	0.4907	2.1506	0.5589	0.4999	-0.2901	0.8781	0.9224	1.0923	-0.7940	0.0604	0.3141	0.9942	-0.0691	-0.0239	0.0926	0.6020	0.6148	0.9546	1.4988	0.9866	0.6463	0.1607	
0.0333	 5.16499445881359E-0005	0.8262	0.0097	0.2009	0.5516	0.5804	1.9021	0.0806	0.3737	-0.1398	1.1897	0.8041	0.9171	-1.0619	-0.2780	0.7052	1.2547	0.0059	-0.0645	-0.1153	0.5552	0.8262	1.2416	1.3358	0.7577	0.4297	-0.0402	0.0189	0.2048	0.5472	0.5720	1.9074	0.0897	0.3793	-0.1319	1.1995	0.7934	0.9097	-1.0633	-0.2763	0.7124	1.2553	-0.0001	-0.0747	-0.1080	0.5628	0.8339	1.2541	1.3318	0.7504	0.4246	-0.0441	
0.0667	 1.58832845914718E-0004	1.0397	0.3462	0.4514	0.6983	0.6693	1.6566	-0.3959	0.2489	0.0123	1.5030	0.6832	0.7401	-1.3294	-0.6161	1.0983	1.5147	0.0796	-0.1075	-0.3203	0.5107	1.0397	1.5341	1.1743	0.5273	0.2123	-0.2415	0.3634	0.4586	0.6914	0.6545	1.6625	-0.3818	0.2579	0.0260	1.5215	0.6642	0.7269	-1.3331	-0.6143	1.1119	1.5173	0.0692	-0.1257	-0.3089	0.5230	1.0532	1.5550	1.1654	0.5136	0.2025	-0.2493	
0.1000	 3.17638698259127E-0004	1.2529	0.6818	0.7010	0.8451	0.7586	1.4103	-0.8724	0.1238	0.1642	1.8155	0.5623	0.5635	-1.5963	-0.9530	1.4901	1.7743	0.1529	-0.1503	-0.5247	0.4663	1.2529	1.8257	1.0117	0.2968	-0.0041	-0.4423	0.7075	0.7113	0.8357	0.7385	1.4174	-0.8541	0.1359	0.1835	1.8426	0.5359	0.5448	-1.6020	-0.9527	1.5106	1.7782	0.1387	-0.1762	-0.5108	0.4831	1.2724	1.8560	0.9983	0.2775	-0.0182	-0.4539	
