Arquivo: c:\arq\medidas\BBA_1505_071958\BBA_AMP03B_V.dat
Data: 1505	 Hora:  0734
Comentário: 
NomeParametro	 ValorParametro
Nmedias	5
PausaCorretora	3000
PausaShunt	2000
PausaLeitura	500
NumCiclos	3
 NPassosCor	7
DeltaShunt	3.00
TetaIni	-0.10
TetaFim	0.10
I[mA]	 148.7
ACV09B	DeltaPos^2	AMP03B	AMP01B_0	AMP02A_0	AMP02B_0	AMP03A_0	AMP03B_0	AMP03C_0	AMP04A_0	AMP04B_0	AMP05A_0	AMP05B_0	AMP06A_0	AMP06B_0	AMP07A_0	AMP07B_0	AMP08A_0	AMP08B_0	AMP09A_0	AMP09B_0	AMP10A_0	AMP10B_0	AMU11A_0	AMU11B_0	AMP12A_0	AMP12B_0	AMP01A_0	AMP01B_1	AMP02A_1	AMP02B_1	AMP03A_1	AMP03B_1	AMP03C_1	AMP04A_1	AMP04B_1	AMP05A_1	AMP05B_1	AMP06A_1	AMP06B_1	AMP07A_1	AMP07B_1	AMP08A_1	AMP08B_1	AMP09A_1	AMP09B_1	AMP10A_1	AMP10B_1	AMU11A_1	AMU11B_1	AMP12A_1	AMP12B_1	AMP01A_1	
-0.1000	 6.58600808318069E-0003	1.3563	0.0798	0.4370	1.0305	1.2382	1.3563	-1.1967	-0.1183	-0.2848	1.2403	1.1632	0.9944	-1.4363	-0.9601	1.1049	1.6457	0.4067	0.3346	-0.7851	-0.0337	0.2475	0.8538	2.0798	1.2694	0.2824	-0.5844	0.1786	0.5210	1.0909	1.2859	1.2652	-1.3947	-0.2015	-0.3296	1.2193	1.2525	1.0328	-1.4830	-1.0604	1.1439	1.6996	0.4878	0.4314	-0.9062	-0.1114	0.2382	0.8883	2.1226	1.2681	0.2076	-0.7008	
-0.0667	 3.16488233936277E-0003	1.6169	-0.0702	0.2656	0.8263	1.0056	1.6169	-0.6234	0.0858	-0.2844	1.1196	1.0756	1.0197	-1.2269	-0.6279	0.8437	1.4289	0.2460	0.2109	-0.4954	0.1763	0.3639	0.8749	1.8898	1.1792	0.4122	-0.3266	-0.0015	0.3237	0.8680	1.0393	1.5541	-0.7609	0.0280	-0.3155	1.1050	1.1380	1.0460	-1.2590	-0.6972	0.8709	1.4665	0.3024	0.2781	-0.5790	0.1227	0.3573	0.8988	1.9198	1.1786	0.3605	-0.4071	
-0.0333	 9.29247118765832E-0004	1.8821	-0.2238	0.0906	0.6175	0.7678	1.8821	-0.0376	0.2937	-0.2838	0.9973	0.9859	1.0446	-1.0135	-0.2898	0.5774	1.2085	0.0817	0.0842	-0.1996	0.3909	0.4821	0.8961	1.6955	1.0871	0.5445	-0.0637	-0.1862	0.1221	0.6402	0.7861	1.8484	-0.1119	0.2624	-0.3007	0.9896	1.0196	1.0593	-1.0309	-0.3267	0.5919	1.2288	0.1125	0.1208	-0.2449	0.3615	0.4785	0.9093	1.7124	1.0871	0.5166	-0.1073	
0.0000	 1.84672607632169E-0005	2.1488	-0.3795	-0.0868	0.4068	0.5266	2.1488	0.5530	0.5040	-0.2824	0.8745	0.8941	1.0693	-0.7977	0.0517	0.3080	0.9851	-0.0848	-0.0451	0.0997	0.6076	0.6016	0.9171	1.4988	0.9944	0.6782	0.2021	-0.3738	-0.0822	0.4102	0.5296	2.1448	0.5429	0.4997	-0.2847	0.8735	0.8992	1.0717	-0.7995	0.0474	0.3103	0.9879	-0.0800	-0.0391	0.0937	0.6035	0.6009	0.9190	1.5021	0.9952	0.6746	0.1960	
0.0333	 4.94046384260495E-0004	2.4163	-0.5371	-0.2651	0.1944	0.2843	2.4163	1.1461	0.7154	-0.2807	0.7516	0.8017	1.0939	-0.5806	0.3946	0.0379	0.7603	-0.2521	-0.1750	0.4006	0.8259	0.7216	0.9380	1.3007	0.9009	0.8126	0.4701	-0.5633	-0.2876	0.1778	0.2712	2.4416	1.2008	0.7386	-0.2679	0.7579	0.7770	1.0837	-0.5673	0.4232	0.0271	0.7453	-0.2738	-0.2003	0.4337	0.8472	0.7243	0.9291	1.2898	0.9020	0.8331	0.5018	
0.0667	 2.37824345701129E-0003	2.6825	-0.6943	-0.4437	-0.0194	0.0403	2.6825	1.7372	0.9277	-0.2779	0.6293	0.7075	1.1175	-0.3638	0.7378	-0.2325	0.5352	-0.4198	-0.3057	0.7020	1.0444	0.8426	0.9589	1.1013	0.8068	0.9477	0.7387	-0.7530	-0.4937	-0.0557	0.0114	2.7371	1.8560	0.9782	-0.2503	0.6428	0.6534	1.0946	-0.3349	0.7996	-0.2566	0.5025	-0.4678	-0.3625	0.7750	1.0915	0.8483	0.9392	1.0762	0.8085	0.9926	0.8085	
0.1000	 5.56980179839051E-0003	2.9483	-0.8515	-0.6225	-0.2332	-0.2042	2.9483	2.3259	1.1402	-0.2746	0.5079	0.6123	1.1403	-0.1467	1.0811	-0.5033	0.3099	-0.5877	-0.4365	1.0040	1.2632	0.9640	0.9813	0.9005	0.7126	1.0828	1.0075	-0.9421	-0.6994	-0.2889	-0.2488	3.0312	2.5056	1.2179	-0.2320	0.5290	0.5283	1.1047	-0.1028	1.1752	-0.5394	0.2597	-0.6615	-0.5245	1.1158	1.3352	0.9732	0.9507	0.8616	0.7144	1.1515	1.1148	
