Arquivo: c:\arq\medidas\BBA_1505_071958\BBA_AMP03A_V.dat
Data: 1505	 Hora:  0730
Comentário: 
NomeParametro	 ValorParametro
Nmedias	5
PausaCorretora	3000
PausaShunt	2000
PausaLeitura	500
NumCiclos	3
 NPassosCor	7
DeltaShunt	3.00
TetaIni	-0.10
TetaFim	0.10
I[mA]	 148.9
ACV09A	DeltaPos^2	AMP03A	AMP01B_0	AMP02A_0	AMP02B_0	AMP03A_0	AMP03B_0	AMP03C_0	AMP04A_0	AMP04B_0	AMP05A_0	AMP05B_0	AMP06A_0	AMP06B_0	AMP07A_0	AMP07B_0	AMP08A_0	AMP08B_0	AMP09A_0	AMP09B_0	AMP10A_0	AMP10B_0	AMU11A_0	AMU11B_0	AMP12A_0	AMP12B_0	AMP01A_0	AMP01B_1	AMP02A_1	AMP02B_1	AMP03A_1	AMP03B_1	AMP03C_1	AMP04A_1	AMP04B_1	AMP05A_1	AMP05B_1	AMP06A_1	AMP06B_1	AMP07A_1	AMP07B_1	AMP08A_1	AMP08B_1	AMP09A_1	AMP09B_1	AMP10A_1	AMP10B_1	AMU11A_1	AMU11B_1	AMP12A_1	AMP12B_1	AMP01A_1	
-0.1000	 3.12687753197775E-0003	-0.3846	-0.2452	-0.2384	-0.1985	-0.3846	2.7487	2.0523	1.1346	0.0532	1.0245	0.2263	0.7902	-0.4334	0.8242	-0.0067	0.5671	-0.6919	-0.8223	0.4599	1.0538	1.2064	1.4049	0.7863	0.4265	0.6701	0.5342	-0.2751	-0.2810	-0.2619	-0.4672	2.7734	2.1361	1.1819	0.1140	1.0913	0.1335	0.7312	-0.4363	0.8559	0.0216	0.5623	-0.7495	-0.9118	0.5308	1.1128	1.2497	1.4230	0.7226	0.3900	0.6987	0.6006	
-0.0667	 1.38866775863430E-0003	-0.0911	-0.2771	-0.1814	-0.0002	-0.0911	2.5504	1.5587	0.9252	-0.0608	0.9708	0.4514	0.8857	-0.5525	0.5696	0.0945	0.7039	-0.4897	-0.5628	0.3333	0.9036	1.0133	1.2538	1.0169	0.6064	0.6645	0.4164	-0.2966	-0.2095	-0.0424	-0.1461	2.5659	1.6142	0.9567	-0.0202	1.0155	0.3893	0.8460	-0.5545	0.5906	0.1136	0.7010	-0.5279	-0.6230	0.3803	0.9433	1.0424	1.2663	0.9744	0.5816	0.6831	0.4599	
-0.0333	 3.30104019430373E-0004	0.2065	-0.3099	-0.1238	0.2007	0.2065	2.3487	1.0576	0.7133	-0.1759	0.9167	0.6785	0.9821	-0.6722	0.3124	0.1960	0.8421	-0.2851	-0.3002	0.2054	0.7525	0.8183	1.1003	1.2498	0.7885	0.6593	0.2976	-0.3189	-0.1371	0.1801	0.1791	2.3555	1.0841	0.7284	-0.1561	0.9386	0.6478	0.9622	-0.6737	0.3223	0.2057	0.8406	-0.3036	-0.3298	0.2281	0.7716	0.8326	1.1066	1.2289	0.7759	0.6678	0.3183	
0.0000	 1.35434061545952E-0006	0.5062	-0.3437	-0.0666	0.4024	0.5062	2.1447	0.5502	0.4999	-0.2923	0.8614	0.9076	1.0794	-0.7932	0.0526	0.2986	0.9815	-0.0785	-0.0353	0.0762	0.5996	0.6213	0.9460	1.4844	0.9720	0.6550	0.1786	-0.3422	-0.0652	0.4033	0.5067	2.1428	0.5477	0.4986	-0.2929	0.8608	0.9081	1.0795	-0.7938	0.0517	0.2982	0.9819	-0.0777	-0.0345	0.0745	0.5988	0.6208	0.9463	1.4850	0.9717	0.6534	0.1759	
0.0333	 4.08755915161685E-0004	0.8071	-0.3784	-0.0092	0.6046	0.8071	1.9395	0.0406	0.2855	-0.4084	0.8069	1.1371	1.1769	-0.9147	-0.2075	0.4009	1.1212	0.1288	0.2314	-0.0528	0.4465	0.4228	0.7903	1.7202	1.1566	0.6506	0.0598	-0.3665	0.0070	0.6273	0.8357	1.9277	0.0080	0.2677	-0.4298	0.7838	1.1697	1.1971	-0.9145	-0.2197	0.3911	1.1227	0.1494	0.2624	-0.0791	0.4249	0.4075	0.7840	1.7422	1.1688	0.6389	0.0339	
0.0667	 1.54103064038780E-0003	1.1071	-0.4136	0.0477	0.8069	1.1071	1.7335	-0.4698	0.0714	-0.5244	0.7526	1.3661	1.2741	-1.0359	-0.4688	0.5033	1.2604	0.3355	0.4967	-0.1816	0.2939	0.2241	0.6334	1.9550	1.3407	0.6465	-0.0586	-0.3917	0.0787	0.8510	1.1630	1.7135	-0.5313	0.0374	-0.5662	0.7065	1.4302	1.3143	-1.0349	-0.4916	0.4834	1.2637	0.3758	0.5583	-0.2322	0.2516	0.1941	0.6210	1.9983	1.3656	0.6252	-0.1073	
0.1000	 3.48242357467020E-0003	1.4157	-0.4512	0.1064	1.0154	1.4157	1.5206	-0.9968	-0.1502	-0.6445	0.6961	1.6025	1.3744	-1.1614	-0.7379	0.6090	1.4040	0.5492	0.7716	-0.3144	0.1363	0.0186	0.4704	2.1970	1.5321	0.6429	-0.1801	-0.4190	0.1519	1.0818	1.5004	1.4905	-1.0885	-0.2009	-0.7081	0.6262	1.6988	1.4355	-1.1594	-0.7719	0.5790	1.4088	0.6098	0.8648	-0.3902	0.0729	-0.0269	0.4510	2.2623	1.5692	0.6116	-0.2526	
