Arquivo: c:\arq\medidas\BBA_1505_071958\BBA_AMP08A_V.dat
Data: 1505	 Hora:  0805
Comentário: 
NomeParametro	 ValorParametro
Nmedias	5
PausaCorretora	3000
PausaShunt	2000
PausaLeitura	500
NumCiclos	3
 NPassosCor	7
DeltaShunt	3.00
TetaIni	-0.10
TetaFim	0.10
I[mA]	  48.4
ACV03B	DeltaPos^2	AMP08A	AMP01B_0	AMP02A_0	AMP02B_0	AMP03A_0	AMP03B_0	AMP03C_0	AMP04A_0	AMP04B_0	AMP05A_0	AMP05B_0	AMP06A_0	AMP06B_0	AMP07A_0	AMP07B_0	AMP08A_0	AMP08B_0	AMP09A_0	AMP09B_0	AMP10A_0	AMP10B_0	AMU11A_0	AMU11B_0	AMP12A_0	AMP12B_0	AMP01A_0	AMP01B_1	AMP02A_1	AMP02B_1	AMP03A_1	AMP03B_1	AMP03C_1	AMP04A_1	AMP04B_1	AMP05A_1	AMP05B_1	AMP06A_1	AMP06B_1	AMP07A_1	AMP07B_1	AMP08A_1	AMP08B_1	AMP09A_1	AMP09B_1	AMP10A_1	AMP10B_1	AMU11A_1	AMU11B_1	AMP12A_1	AMP12B_1	AMP01A_1	
-0.1000	 4.92159709523337E-0004	1.4031	0.4078	0.5829	0.8853	0.9029	1.4260	-0.9813	-0.1374	-0.6167	0.7380	1.5861	1.3661	-1.1486	-0.7066	0.6066	1.4031	0.5536	0.7218	-0.8558	-0.0048	0.5282	1.1912	1.8340	0.9844	0.0838	-0.7223	0.4400	0.6066	0.8945	0.9039	1.4075	-1.0147	-0.1446	-0.5989	0.7701	1.5686	1.3460	-1.1717	-0.7335	0.6429	1.4256	0.5722	0.7399	-0.8881	-0.0223	0.5342	1.2093	1.8369	0.9758	0.0606	-0.7534	
-0.0667	 3.07059789281695E-0004	1.2813	0.1802	0.3867	0.7365	0.7771	1.6491	-0.5062	0.0610	-0.5093	0.7888	1.3753	1.2748	-1.0426	-0.4734	0.5237	1.2813	0.3599	0.4862	-0.5672	0.1825	0.5591	1.1192	1.7253	0.9801	0.2577	-0.4466	0.2058	0.4053	0.7440	0.7778	1.6345	-0.5327	0.0554	-0.4950	0.8144	1.3614	1.2594	-1.0609	-0.4945	0.5522	1.2987	0.3748	0.5007	-0.5927	0.1689	0.5636	1.1335	1.7276	0.9734	0.2395	-0.4712	
-0.0333	 1.68356609559343E-0004	1.1578	-0.0486	0.1892	0.5865	0.6500	1.8728	-0.0274	0.2607	-0.4014	0.8398	1.1626	1.1835	-0.9354	-0.2394	0.4399	1.1578	0.1650	0.2495	-0.2762	0.3715	0.5898	1.0468	1.6154	0.9761	0.4326	-0.1693	-0.0295	0.2031	0.5919	0.6507	1.8626	-0.0469	0.2569	-0.3908	0.8587	1.1524	1.1718	-0.9489	-0.2544	0.4615	1.1711	0.1761	0.2598	-0.2951	0.3614	0.5934	1.0576	1.6172	0.9712	0.4191	-0.1875	
0.0000	 7.00840458542981E-0005	1.0338	-0.2787	-0.0100	0.4355	0.5215	2.0976	0.4542	0.4620	-0.2922	0.8916	0.9475	1.0906	-0.8278	-0.0028	0.3561	1.0338	-0.0315	0.0094	0.0164	0.5621	0.6217	0.9745	1.5040	0.9708	0.6082	0.1090	-0.2667	-0.0010	0.4391	0.5222	2.0909	0.4411	0.4595	-0.2854	0.9038	0.9410	1.0829	-0.8364	-0.0129	0.3699	1.0419	-0.0243	0.0164	0.0043	0.5554	0.6238	0.9814	1.5056	0.9678	0.5996	0.0973	
0.0333	 1.13614681244017E-0005	0.9070	-0.5147	-0.2132	0.2812	0.3902	2.3262	0.9450	0.6675	-0.1803	0.9454	0.7276	0.9952	-0.7180	0.2377	0.2707	0.9070	-0.2325	-0.2352	0.3161	0.7567	0.6544	0.9009	1.3898	0.9653	0.7872	0.3939	-0.5097	-0.2095	0.2825	0.3904	2.3242	0.9403	0.6668	-0.1773	0.9506	0.7246	0.9920	-0.7214	0.2341	0.2762	0.9103	-0.2297	-0.2323	0.3109	0.7541	0.6552	0.9039	1.3907	0.9644	0.7836	0.3891	
0.0667	 2.17152277517422E-0006	0.7790	-0.7532	-0.4186	0.1250	0.2574	2.5566	1.4393	0.8755	-0.0667	1.0003	0.5049	0.8989	-0.6071	0.4815	0.1846	0.7790	-0.4359	-0.4832	0.6185	0.9538	0.6883	0.8264	1.2743	0.9599	0.9680	0.6821	-0.7554	-0.4201	0.1243	0.2572	2.5581	1.4418	0.8762	-0.0676	0.9988	0.5059	0.9001	-0.6052	0.4836	0.1822	0.7775	-0.4368	-0.4843	0.6205	0.9548	0.6877	0.8254	1.2746	0.9606	0.9699	0.6842	
0.1000	 3.84707353206514E-0005	0.6501	-0.9930	-0.6256	-0.0328	0.1239	2.7868	1.9347	1.0848	0.0485	1.0565	0.2798	0.8014	-0.4955	0.7258	0.0984	0.6501	-0.6400	-0.7330	0.9231	1.1520	0.7225	0.7519	1.1573	0.9539	1.1502	0.9725	-1.0022	-0.6321	-0.0357	0.1235	2.7924	1.9445	1.0871	0.0438	1.0481	0.2840	0.8066	-0.4888	0.7340	0.0882	0.6439	-0.6454	-0.7378	0.9320	1.1569	0.7207	0.7474	1.1568	0.9565	1.1568	0.9810	
