Arquivo: c:\arq\medidas\BBA_1505_071958\BBA_AMP04B_V.dat
Data: 1505	 Hora:  0743
Comentário: 
NomeParametro	 ValorParametro
Nmedias	5
PausaCorretora	3000
PausaShunt	2000
PausaLeitura	500
NumCiclos	3
 NPassosCor	7
DeltaShunt	3.00
TetaIni	-0.10
TetaFim	0.10
I[mA]	 147.9
ACV11A	DeltaPos^2	AMP04B	AMP01B_0	AMP02A_0	AMP02B_0	AMP03A_0	AMP03B_0	AMP03C_0	AMP04A_0	AMP04B_0	AMP05A_0	AMP05B_0	AMP06A_0	AMP06B_0	AMP07A_0	AMP07B_0	AMP08A_0	AMP08B_0	AMP09A_0	AMP09B_0	AMP10A_0	AMP10B_0	AMU11A_0	AMU11B_0	AMP12A_0	AMP12B_0	AMP01A_0	AMP01B_1	AMP02A_1	AMP02B_1	AMP03A_1	AMP03B_1	AMP03C_1	AMP04A_1	AMP04B_1	AMP05A_1	AMP05B_1	AMP06A_1	AMP06B_1	AMP07A_1	AMP07B_1	AMP08A_1	AMP08B_1	AMP09A_1	AMP09B_1	AMP10A_1	AMP10B_1	AMU11A_1	AMU11B_1	AMP12A_1	AMP12B_1	AMP01A_1	
-0.1000	 2.40027148198498E-0004	-0.9971	-1.3491	-0.6625	0.4511	0.9558	2.3671	0.7264	0.3602	-0.9971	-0.1586	1.8004	1.8110	-0.3366	0.3550	-0.5688	0.5938	0.2646	0.7559	-0.1511	0.1929	-0.0953	0.1727	1.7945	1.5335	1.3245	0.8880	-1.3632	-0.6659	0.4635	0.9793	2.3589	0.6983	0.3462	-1.0126	-0.1835	1.8183	1.8281	-0.3227	0.3678	-0.5923	0.5812	0.2697	0.7719	-0.1514	0.1864	-0.1119	0.1561	1.8114	1.5500	1.3318	0.8893	
-0.0667	 1.05901679146871E-0004	-0.7723	-1.0205	-0.4649	0.4413	0.8172	2.2879	0.6530	0.3980	-0.7723	0.1730	1.5195	1.5770	-0.4909	0.2444	-0.2810	0.7265	0.1614	0.5087	-0.0845	0.3192	0.1331	0.4224	1.7002	1.3550	1.1045	0.6512	-1.0304	-0.4676	0.4492	0.8327	2.2832	0.6348	0.3891	-0.7827	0.1562	1.5315	1.5885	-0.4817	0.2530	-0.2966	0.7182	0.1648	0.5195	-0.0849	0.3146	0.1222	0.4113	1.7116	1.3662	1.1098	0.6523	
-0.0333	 2.22363702485075E-0005	-0.5434	-0.6852	-0.2637	0.4314	0.6764	2.2065	0.5772	0.4365	-0.5434	0.5099	1.2337	1.3388	-0.6482	0.1326	0.0119	0.8623	0.0569	0.2578	-0.0182	0.4469	0.3655	0.6764	1.6043	1.1735	0.8807	0.4101	-0.6907	-0.2654	0.4346	0.6840	2.2054	0.5700	0.4325	-0.5487	0.5020	1.2394	1.3440	-0.6441	0.1363	0.0050	0.8582	0.0587	0.2633	-0.0185	0.4448	0.3608	0.6715	1.6092	1.1785	0.8832	0.4114	
0.0000	 1.42859912245691E-0006	-0.3127	-0.3472	-0.0609	0.4213	0.5343	2.1243	0.5015	0.4751	-0.3127	0.8480	0.9448	1.0974	-0.8073	0.0183	0.3075	0.9989	-0.0481	0.0048	0.0481	0.5754	0.6002	0.9323	1.5071	0.9895	0.6542	0.1673	-0.3477	-0.0617	0.4202	0.5336	2.1269	0.5044	0.4762	-0.3124	0.8490	0.9440	1.0973	-0.8083	0.0174	0.3091	0.9998	-0.0478	0.0051	0.0477	0.5755	0.6018	0.9337	1.5057	0.9884	0.6545	0.1685	
0.0333	 4.29622550931812E-0005	-0.0810	-0.0078	0.1436	0.4118	0.3920	2.0411	0.4242	0.5135	-0.0810	1.1884	0.6548	0.8550	-0.9676	-0.0967	0.6047	1.1369	-0.1531	-0.2483	0.1144	0.7039	0.8360	1.1889	1.4092	0.8042	0.4266	-0.0766	-0.0034	0.1441	0.4062	0.3832	2.0471	0.4368	0.5192	-0.0756	1.1988	0.6481	0.8485	-0.9737	-0.1029	0.6151	1.1426	-0.1544	-0.2536	0.1137	0.7064	0.8439	1.1968	1.4017	0.7971	0.4240	-0.0759	
0.0667	 1.47320393440285E-0004	0.1508	0.3315	0.3481	0.4024	0.2499	1.9571	0.3460	0.5515	0.1508	1.5284	0.3641	0.6120	-1.1278	-0.2123	0.9024	1.2746	-0.2581	-0.5020	0.1798	0.8329	1.0720	1.4459	1.3117	0.6190	0.1980	-0.3219	0.3402	0.3493	0.3922	0.2327	1.9673	0.3690	0.5627	0.1620	1.5472	0.3507	0.5999	-1.1388	-0.2233	0.9211	1.2854	-0.2613	-0.5123	0.1791	0.8379	1.0862	1.4598	1.2979	0.6056	0.1931	-0.3210	
0.1000	 3.12693518427682E-0004	0.3817	0.6703	0.5516	0.3933	0.1082	1.8737	0.2674	0.5897	0.3817	1.8665	0.0732	0.3700	-1.2874	-0.3275	1.1988	1.4122	-0.3629	-0.7552	0.2454	0.9616	1.3071	1.7021	1.2146	0.4338	-0.0299	-0.5669	0.6843	0.5537	0.3787	0.0829	1.8864	0.3007	0.6057	0.3977	1.8938	0.0538	0.3518	-1.3034	-0.3438	1.2268	1.4275	-0.3673	-0.7707	0.2443	0.9684	1.3273	1.7226	1.1946	0.4139	-0.0373	-0.5665	
