Arquivo: c:\arq\medidas\BBA_2703_070421\BBA_AMP10A_V.dat
Data: 2703	 Hora:  0801
Comentário: 
NomeParametro	 ValorParametro
Nmedias	5
PausaCorretora	3000
PausaShunt	2000
PausaLeitura	500
NumCiclos	3
 NPassosCor	7
DeltaShunt	3.00
TetaIni	-0.10
TetaFim	0.10
I[mA]	  37.3
ACV11A	DeltaPos^2	AMP10A	AMP01B_0	AMP02A_0	AMP02B_0	AMP03A_0	AMP03B_0	AMP03C_0	AMP04A_0	AMP04B_0	AMP05A_0	AMP05B_0	AMP06A_0	AMP06B_0	AMP07A_0	AMP07B_0	AMP08A_0	AMP08B_0	AMP09A_0	AMP09B_0	AMP10A_0	AMP10B_0	AMU11A_0	AMU11B_0	AMP12A_0	AMP12B_0	AMP01A_0	AMP01B_1	AMP02A_1	AMP02B_1	AMP03A_1	AMP03B_1	AMP03C_1	AMP04A_1	AMP04B_1	AMP05A_1	AMP05B_1	AMP06A_1	AMP06B_1	AMP07A_1	AMP07B_1	AMP08A_1	AMP08B_1	AMP09A_1	AMP09B_1	AMP10A_1	AMP10B_1	AMU11A_1	AMU11B_1	AMP12A_1	AMP12B_1	AMP01A_1	
-0.1000	 3.15230092650653E-0004	0.1947	-1.4931	-0.7289	0.4911	1.0599	2.3397	0.6866	0.3107	-1.1015	-0.3013	1.9480	1.9386	-0.2294	0.4803	-0.6979	0.5203	0.2726	0.8281	-0.0746	0.1947	-0.1957	0.0617	1.9161	1.6695	1.4247	0.9718	-1.5007	-0.7244	0.5081	1.0883	2.3278	0.6455	0.2934	-1.1110	-0.3088	1.9729	1.9473	-0.2392	0.4630	-0.6927	0.5319	0.2903	0.8521	-0.1024	0.1785	-0.2111	0.0534	1.9423	1.6843	1.4241	0.9648	
-0.0667	 1.91369459580554E-0004	0.3168	-1.1134	-0.5029	0.4769	0.8963	2.2509	0.6090	0.3570	-0.8421	0.0829	1.6281	1.6681	-0.4205	0.3309	-0.3527	0.6886	0.1769	0.5689	-0.0377	0.3168	0.0707	0.3637	1.7913	1.4509	1.1691	0.7016	-1.1209	-0.5005	0.4900	0.9189	2.2442	0.5788	0.3438	-0.8500	0.0756	1.6496	1.6764	-0.4267	0.3193	-0.3493	0.6971	0.1906	0.5878	-0.0590	0.3043	0.0587	0.3585	1.8138	1.4631	1.1702	0.6975	
-0.0333	 9.64933612694834E-0005	0.4406	-0.7249	-0.2720	0.4627	0.7295	2.1600	0.5288	0.4041	-0.5771	0.4744	1.3019	1.3923	-0.6160	0.1774	0.0000	0.8615	0.0804	0.3057	-0.0020	0.4406	0.3430	0.6723	1.6633	1.2274	0.9080	0.4260	-0.7316	-0.2718	0.4716	0.7460	2.1576	0.5097	0.3952	-0.5834	0.4686	1.3188	1.3995	-0.6188	0.1711	0.0015	0.8658	0.0901	0.3193	-0.0166	0.4313	0.3337	0.6702	1.6813	1.2366	0.9100	0.4244	
0.0000	 3.19066406814012E-0005	0.5639	-0.3318	-0.0389	0.4491	0.5619	2.0673	0.4468	0.4515	-0.3096	0.8682	0.9718	1.1132	-0.8138	0.0213	0.3563	1.0364	-0.0162	0.0406	0.0325	0.5639	0.6179	0.9834	1.5338	1.0005	0.6434	0.1475	-0.3370	-0.0400	0.4535	0.5714	2.0687	0.4383	0.4469	-0.3140	0.8645	0.9828	1.1189	-0.8139	0.0198	0.3573	1.0381	-0.0110	0.0480	0.0251	0.5591	0.6124	0.9846	1.5458	1.0062	0.6458	0.1479	
0.0333	 7.04780326459128E-0006	0.6882	0.0621	0.1959	0.4355	0.3935	1.9736	0.3632	0.4984	-0.0409	1.2644	0.6412	0.8324	-1.0130	-0.1365	0.7155	1.2128	-0.1129	-0.2249	0.0663	0.6882	0.8938	1.2953	1.4030	0.7718	0.3770	-0.1319	0.0588	0.1936	0.4356	0.3955	1.9786	0.3661	0.4984	-0.0431	1.2626	0.6454	0.8359	-1.0103	-0.1329	0.7146	1.2111	-0.1122	-0.2240	0.0661	0.6880	0.8928	1.2988	1.4083	0.7739	0.3799	-0.1298	
0.0667	 2.74602940685308E-0005	0.8122	0.4561	0.4304	0.4225	0.2253	1.8790	0.2782	0.5445	0.2280	1.6598	0.3089	0.5508	-1.2120	-0.2950	1.0747	1.3889	-0.2089	-0.4909	0.0998	0.8122	1.1699	1.6077	1.2731	0.5432	0.1104	-0.4132	0.4536	0.4267	0.4181	0.2203	1.8873	0.2924	0.5495	0.2280	1.6589	0.3078	0.5525	-1.2064	-0.2866	1.0714	1.3834	-0.2131	-0.4954	0.1069	0.8162	1.1726	1.6131	1.2721	0.5412	0.1136	-0.4083	
0.1000	 8.80867592863758E-0005	0.9349	0.8484	0.6640	0.4102	0.0585	1.7842	0.1925	0.5911	0.4946	2.0514	-0.0217	0.2716	-1.4100	-0.4527	1.4305	1.5637	-0.3048	-0.7548	0.1328	0.9349	1.4441	1.9180	1.1438	0.3153	-0.1552	-0.6937	0.8463	0.6585	0.4011	0.0468	1.7960	0.2180	0.6001	0.4967	2.0507	-0.0278	0.2710	-1.4016	-0.4388	1.4240	1.5554	-0.3134	-0.7644	0.1468	0.9430	1.4502	1.9246	1.1365	0.3100	-0.1515	-0.6857	
