Arquivo: c:\arq\medidas\BBA_2703_070421\BBA_AMP08B_V.dat
Data: 2703	 Hora:  0752
Comentário: 
NomeParametro	 ValorParametro
Nmedias	5
PausaCorretora	3000
PausaShunt	2000
PausaLeitura	500
NumCiclos	3
 NPassosCor	7
DeltaShunt	3.00
TetaIni	-0.10
TetaFim	0.10
I[mA]	  40.6
ACV11B	DeltaPos^2	AMP08B	AMP01B_0	AMP02A_0	AMP02B_0	AMP03A_0	AMP03B_0	AMP03C_0	AMP04A_0	AMP04B_0	AMP05A_0	AMP05B_0	AMP06A_0	AMP06B_0	AMP07A_0	AMP07B_0	AMP08A_0	AMP08B_0	AMP09A_0	AMP09B_0	AMP10A_0	AMP10B_0	AMU11A_0	AMU11B_0	AMP12A_0	AMP12B_0	AMP01A_0	AMP01B_1	AMP02A_1	AMP02B_1	AMP03A_1	AMP03B_1	AMP03C_1	AMP04A_1	AMP04B_1	AMP05A_1	AMP05B_1	AMP06A_1	AMP06B_1	AMP07A_1	AMP07B_1	AMP08A_1	AMP08B_1	AMP09A_1	AMP09B_1	AMP10A_1	AMP10B_1	AMU11A_1	AMU11B_1	AMP12A_1	AMP12B_1	AMP01A_1	
-0.1000	 2.10931050153040E-0004	-0.5446	0.5682	0.3750	0.1010	-0.2758	2.1917	1.0732	0.8855	0.4371	1.7831	-0.0828	0.3671	-1.0536	0.0809	0.9696	1.2008	-0.5446	-0.9154	0.5865	1.1358	1.2352	1.4164	0.7605	0.2219	0.0796	-0.2658	0.5599	0.3646	0.0874	-0.2917	2.2091	1.1105	0.8997	0.4371	1.7755	-0.0887	0.3688	-1.0397	0.1031	0.9531	1.1862	-0.5576	-0.9340	0.6034	1.1490	1.2424	1.4179	0.7488	0.2162	0.0875	-0.2501	
-0.0667	 9.57521633408133E-0005	-0.3741	0.2910	0.2506	0.2155	-0.0077	2.1455	0.8612	0.7449	0.2042	1.5020	0.2495	0.5985	-0.9855	0.0511	0.7858	1.1565	-0.3741	-0.6116	0.4000	0.9499	1.0420	1.2846	1.0079	0.4669	0.2517	-0.1435	0.2853	0.2437	0.2064	-0.0181	2.1576	0.8862	0.7541	0.2042	1.4967	0.2459	0.6000	-0.9759	0.0663	0.7744	1.1467	-0.3825	-0.6239	0.4115	0.9588	1.0467	1.2858	1.0005	0.4634	0.2573	-0.1328	
-0.0333	 2.21056048791566E-0005	-0.2004	0.0091	0.1236	0.3317	0.2653	2.0988	0.6460	0.6015	-0.0329	1.2150	0.5872	0.8349	-0.9154	0.0223	0.5984	1.1103	-0.2004	-0.3029	0.2114	0.7613	0.8455	1.1502	1.2590	0.7163	0.4277	-0.0188	0.0060	0.1201	0.3272	0.2604	2.1049	0.6581	0.6057	-0.0330	1.2121	0.5859	0.8357	-0.9107	0.0297	0.5928	1.1057	-0.2048	-0.3085	0.2170	0.7655	0.8475	1.1506	1.2563	0.7152	0.4305	-0.0137	
0.0000	 2.77698471359330E-0007	-0.0254	-0.2758	-0.0050	0.4487	0.5401	2.0514	0.4286	0.4565	-0.2718	0.9247	0.9265	1.0727	-0.8447	-0.0071	0.4094	1.0648	-0.0254	0.0085	0.0202	0.5707	0.6469	1.0152	1.5125	0.9678	0.6050	0.1063	-0.2761	-0.0049	0.4491	0.5410	2.0517	0.4282	0.4561	-0.2724	0.9243	0.9273	1.0731	-0.8447	-0.0071	0.4095	1.0645	-0.0254	0.0093	0.0200	0.5705	0.6463	1.0149	1.5138	0.9687	0.6052	0.1062	
0.0333	 2.42678522207674E-0005	0.1503	-0.5629	-0.1340	0.5661	0.8162	2.0043	0.2105	0.3111	-0.5120	0.6333	1.2684	1.3114	-0.7735	-0.0362	0.2193	1.0177	0.1503	0.3218	-0.1711	0.3793	0.4478	0.8789	1.7660	1.2199	0.7830	0.2329	-0.5604	-0.1307	0.5710	0.8220	1.9992	0.1982	0.3064	-0.5125	0.6355	1.2709	1.3114	-0.7781	-0.0432	0.2246	1.0221	0.1547	0.3286	-0.1770	0.3745	0.4445	0.8780	1.7713	1.2226	0.7809	0.2276	
0.0667	 9.69571736483639E-0005	0.3259	-0.8500	-0.2634	0.6836	1.0909	1.9571	-0.0061	0.1659	-0.7516	0.3408	1.6086	1.5496	-0.7024	-0.0657	0.0294	0.9713	0.3259	0.6341	-0.3630	0.1878	0.2490	0.7429	2.0185	1.4705	0.9611	0.3598	-0.8448	-0.2565	0.6930	1.1024	1.9460	-0.0315	0.1570	-0.7521	0.3454	1.6132	1.5488	-0.7114	-0.0799	0.0403	0.9804	0.3343	0.6475	-0.3745	0.1788	0.2430	0.7411	2.0281	1.4759	0.9564	0.3496	
0.1000	 2.19992052447051E-0004	0.5030	-1.1394	-0.3936	0.8016	1.3668	1.9096	-0.2251	0.0195	-0.9936	0.0455	1.9506	1.7891	-0.6309	-0.0954	-0.1618	0.9247	0.5030	0.9492	-0.5571	-0.0052	0.0487	0.6063	2.2721	1.7230	1.1405	0.4882	-1.1316	-0.3837	0.8156	1.3839	1.8929	-0.2635	0.0058	-0.9938	0.0525	1.9577	1.7881	-0.6445	-0.1173	-0.1459	0.9388	0.5158	0.9697	-0.5745	-0.0188	0.0403	0.6037	2.2860	1.7307	1.1336	0.4726	
