Arquivo: c:\arq\medidas\BBA_0105_072004\BBA_AMP03B_V.dat
Data: 0105	 Hora:  0734
Comentário: 
NomeParametro	 ValorParametro
Nmedias	5
PausaCorretora	3000
PausaShunt	2000
PausaLeitura	500
NumCiclos	3
 NPassosCor	7
DeltaShunt	3.00
TetaIni	-0.10
TetaFim	0.10
I[mA]	 145.3
ACV09B	DeltaPos^2	AMP03B	AMP01B_0	AMP02A_0	AMP02B_0	AMP03A_0	AMP03B_0	AMP03C_0	AMP04A_0	AMP04B_0	AMP05A_0	AMP05B_0	AMP06A_0	AMP06B_0	AMP07A_0	AMP07B_0	AMP08A_0	AMP08B_0	AMP09A_0	AMP09B_0	AMP10A_0	AMP10B_0	AMU11A_0	AMU11B_0	AMP12A_0	AMP12B_0	AMP01A_0	AMP01B_1	AMP02A_1	AMP02B_1	AMP03A_1	AMP03B_1	AMP03C_1	AMP04A_1	AMP04B_1	AMP05A_1	AMP05B_1	AMP06A_1	AMP06B_1	AMP07A_1	AMP07B_1	AMP08A_1	AMP08B_1	AMP09A_1	AMP09B_1	AMP10A_1	AMP10B_1	AMU11A_1	AMU11B_1	AMP12A_1	AMP12B_1	AMP01A_1	
-0.1000	 6.72203675198261E-0003	1.3450	0.0744	0.4344	1.0342	1.2445	1.3450	-1.2088	-0.1231	-0.2847	1.2419	1.1662	0.9953	-1.4395	-0.9657	1.1078	1.6489	0.4109	0.3409	-0.7917	-0.0403	0.2414	0.8495	2.0854	1.2743	0.2859	-0.5812	0.1737	0.5190	1.0955	1.2933	1.2528	-1.4090	-0.2071	-0.3299	1.2211	1.2562	1.0337	-1.4872	-1.0674	1.1483	1.7040	0.4930	0.4384	-0.9136	-0.1188	0.2317	0.8840	2.1288	1.2733	0.2107	-0.6987	
-0.0667	 3.19588097409791E-0003	1.6082	-0.0776	0.2614	0.8281	1.0101	1.6082	-0.6298	0.0826	-0.2852	1.1195	1.0784	1.0211	-1.2280	-0.6309	0.8437	1.4302	0.2481	0.2144	-0.4983	0.1721	0.3581	0.8700	1.8938	1.1840	0.4170	-0.3215	-0.0088	0.3195	0.8702	1.0441	1.5454	-0.7683	0.0246	-0.3159	1.1055	1.1407	1.0475	-1.2606	-0.7007	0.8718	1.4683	0.3047	0.2820	-0.5823	0.1179	0.3511	0.8940	1.9242	1.1835	0.3652	-0.4020	
-0.0333	 9.20351688707055E-0004	1.8760	-0.2326	0.0847	0.6173	0.7698	1.8760	-0.0385	0.2925	-0.2849	0.9956	0.9877	1.0464	-1.0124	-0.2886	0.5750	1.2073	0.0813	0.0852	-0.1988	0.3889	0.4768	0.8908	1.6981	1.0914	0.5506	-0.0566	-0.1955	0.1161	0.6400	0.7883	1.8426	-0.1125	0.2618	-0.3014	0.9883	1.0213	1.0608	-1.0299	-0.3257	0.5896	1.2278	0.1121	0.1218	-0.2439	0.3597	0.4733	0.9036	1.7148	1.0916	0.5229	-0.0999	
0.0000	 1.24011114483463E-0005	2.1452	-0.3902	-0.0943	0.4050	0.5269	2.1452	0.5575	0.5045	-0.2842	0.8712	0.8959	1.0717	-0.7948	0.0559	0.3037	0.9815	-0.0871	-0.0467	0.1038	0.6080	0.5970	0.9112	1.4999	0.9988	0.6855	0.2111	-0.3853	-0.0904	0.4081	0.5292	2.1420	0.5494	0.5011	-0.2859	0.8706	0.8998	1.0736	-0.7963	0.0524	0.3053	0.9839	-0.0832	-0.0415	0.0989	0.6044	0.5964	0.9130	1.5027	0.9991	0.6826	0.2060	
0.0333	 5.58439955979490E-0004	2.4152	-0.5489	-0.2741	0.1909	0.2821	2.4152	1.1562	0.7182	-0.2826	0.7468	0.8022	1.0962	-0.5757	0.4017	0.0310	0.7547	-0.2570	-0.1793	0.4084	0.8285	0.7175	0.9317	1.3002	0.9048	0.8212	0.4809	-0.5774	-0.2980	0.1735	0.2683	2.4422	1.2140	0.7424	-0.2694	0.7532	0.7764	1.0856	-0.5614	0.4323	0.0192	0.7384	-0.2800	-0.2062	0.4436	0.8512	0.7205	0.9224	1.2888	0.9055	0.8433	0.5147	
0.0667	 2.56029893117699E-0003	2.6842	-0.7084	-0.4543	-0.0248	0.0362	2.6842	1.7531	0.9323	-0.2805	0.6231	0.7077	1.1204	-0.3565	0.7485	-0.2419	0.5271	-0.4273	-0.3129	0.7134	1.0497	0.8393	0.9525	1.0990	0.8101	0.9573	0.7513	-0.7688	-0.5062	-0.0626	0.0060	2.7409	1.8765	0.9848	-0.2520	0.6365	0.6517	1.0970	-0.3264	0.8128	-0.2670	0.4932	-0.4772	-0.3718	0.7895	1.0982	0.8457	0.9322	1.0729	0.8118	1.0042	0.8235	
0.1000	 5.93664358992454E-0003	2.9524	-0.8670	-0.6348	-0.2403	-0.2103	2.9524	2.3467	1.1468	-0.2775	0.5001	0.6119	1.1438	-0.1374	1.0950	-0.5148	0.2996	-0.5972	-0.4466	1.0192	1.2706	0.9615	0.9743	0.8968	0.7153	1.0933	1.0220	-0.9599	-0.7137	-0.2981	-0.2568	3.0382	2.5327	1.2270	-0.2336	0.5212	0.5259	1.1077	-0.0918	1.1923	-0.5527	0.2480	-0.6738	-0.5370	1.1346	1.3450	0.9714	0.9429	0.8564	0.7167	1.1645	1.1327	
