Arquivo: c:\arq\medidas\BBA_0105_072004\BBA_AMP09B_V.dat
Data: 0105	 Hora:  0814
Comentário: 
NomeParametro	 ValorParametro
Nmedias	5
PausaCorretora	3000
PausaShunt	2000
PausaLeitura	500
NumCiclos	3
 NPassosCor	7
DeltaShunt	3.00
TetaIni	-0.10
TetaFim	0.10
I[mA]	  34.0
ACV09B	DeltaPos^2	AMP09B	AMP01B_0	AMP02A_0	AMP02B_0	AMP03A_0	AMP03B_0	AMP03C_0	AMP04A_0	AMP04B_0	AMP05A_0	AMP05B_0	AMP06A_0	AMP06B_0	AMP07A_0	AMP07B_0	AMP08A_0	AMP08B_0	AMP09A_0	AMP09B_0	AMP10A_0	AMP10B_0	AMU11A_0	AMU11B_0	AMP12A_0	AMP12B_0	AMP01A_0	AMP01B_1	AMP02A_1	AMP02B_1	AMP03A_1	AMP03B_1	AMP03C_1	AMP04A_1	AMP04B_1	AMP05A_1	AMP05B_1	AMP06A_1	AMP06B_1	AMP07A_1	AMP07B_1	AMP08A_1	AMP08B_1	AMP09A_1	AMP09B_1	AMP10A_1	AMP10B_1	AMU11A_1	AMU11B_1	AMP12A_1	AMP12B_1	AMP01A_1	
-0.1000	 1.16912533408901E-0002	-0.8845	0.1709	0.5118	1.0695	1.2483	1.2851	-1.3241	-0.1496	-0.2277	1.3615	1.1336	0.9502	-1.5190	-1.0599	1.2230	1.7369	0.4737	0.3916	-0.8845	-0.0891	0.2592	0.9037	2.0985	1.2605	0.2201	-0.6746	0.2518	0.5991	1.1673	1.3566	1.1574	-1.6012	-0.2435	-0.2134	1.4406	1.1584	0.9236	-1.6291	-1.2274	1.3639	1.8495	0.5517	0.4480	-1.0274	-0.1931	0.2073	0.9000	2.1889	1.2993	0.1524	-0.8048	
-0.0667	 7.38756039910319E-0003	-0.5827	0.0093	0.3335	0.8637	1.0171	1.5522	-0.7417	0.0493	-0.2518	1.2051	1.0736	0.9996	-1.2917	-0.7112	0.9358	1.5043	0.3076	0.2673	-0.5827	0.1263	0.3716	0.9176	1.9084	1.1745	0.3573	-0.4071	0.0742	0.4028	0.9413	1.1032	1.4508	-0.9624	-0.0252	-0.2404	1.2677	1.0935	0.9787	-1.3791	-0.8440	1.0478	1.5936	0.3695	0.3124	-0.6964	0.0436	0.3306	0.9148	1.9803	1.2057	0.3036	-0.5103	
-0.0333	 3.96661602901454E-0003	-0.2741	-0.1560	0.1512	0.6532	0.7800	1.8239	-0.1453	0.2529	-0.2756	1.0460	1.0119	1.0491	-1.0602	-0.3546	0.6426	1.2668	0.1373	0.1396	-0.2741	0.3460	0.4865	0.9315	1.7137	1.0866	0.4975	-0.1342	-0.1085	0.2020	0.7101	0.8431	1.7499	-0.3075	0.1985	-0.2678	1.0918	1.0262	1.0342	-1.1239	-0.4519	0.7244	1.3322	0.1827	0.1728	-0.3574	0.2856	0.4565	0.9296	1.7668	1.1095	0.4581	-0.2099	
0.0000	 1.54391042199278E-0003	0.0374	-0.3235	-0.0336	0.4407	0.5392	2.0976	0.4565	0.4586	-0.2997	0.8859	0.9485	1.0984	-0.8261	0.0048	0.3472	1.0267	-0.0349	0.0097	0.0374	0.5680	0.6026	0.9453	1.5167	0.9977	0.6393	0.1418	-0.2939	-0.0017	0.4762	0.5791	2.0514	0.3554	0.4245	-0.2949	0.9144	0.9575	1.0892	-0.8660	-0.0555	0.3978	1.0674	-0.0066	0.0302	-0.0144	0.5302	0.5836	0.9440	1.5501	1.0125	0.6145	0.0944	
0.0333	 2.40183126480545E-0004	0.3520	-0.4933	-0.2193	0.2263	0.2969	2.3724	1.0611	0.6659	-0.3231	0.7255	0.8843	1.1478	-0.5906	0.3658	0.0498	0.7846	-0.2085	-0.1212	0.3520	0.7921	0.7195	0.9593	1.3178	0.9089	0.7812	0.4201	-0.4814	-0.2068	0.2402	0.3125	2.3538	1.0211	0.6523	-0.3212	0.7368	0.8878	1.1438	-0.6061	0.3426	0.0695	0.8005	-0.1975	-0.1131	0.3314	0.7772	0.7118	0.9588	1.3310	0.9147	0.7717	0.4011	
0.0667	 7.28180344694385E-0005	0.6664	-0.6629	-0.4051	0.0107	0.0532	2.6459	1.6640	0.8737	-0.3457	0.5661	0.8187	1.1960	-0.3550	0.7268	-0.2479	0.5423	-0.3825	-0.2529	0.6664	1.0164	0.8369	0.9737	1.1174	0.8187	0.9237	0.6989	-0.6691	-0.4121	0.0028	0.0444	2.6550	1.6856	0.8812	-0.3466	0.5603	0.8161	1.1978	-0.3460	0.7411	-0.2589	0.5334	-0.3889	-0.2576	0.6779	1.0243	0.8411	0.9741	1.1105	0.8158	0.9290	0.7090	
0.1000	 1.04097134579008E-0003	0.9804	-0.8316	-0.5906	-0.2044	-0.1902	2.9179	2.2619	1.0814	-0.3673	0.4077	0.7527	1.2437	-0.1203	1.0877	-0.5445	0.3009	-0.5556	-0.3846	0.9804	1.2405	0.9549	0.9893	0.9165	0.7287	1.0660	0.9776	-0.8555	-0.6169	-0.2343	-0.2236	2.9545	2.3442	1.1095	-0.3706	0.3853	0.7438	1.2508	-0.0872	1.1382	-0.5862	0.2670	-0.5795	-0.4018	1.0230	1.2713	0.9708	0.9907	0.8891	0.7167	1.0860	1.0162	
