Arquivo: c:\arq\medidas\BBA_0105_072004\BBA_AMP10A_V.dat
Data: 0105	 Hora:  0817
Comentário: 
NomeParametro	 ValorParametro
Nmedias	5
PausaCorretora	3000
PausaShunt	2000
PausaLeitura	500
NumCiclos	3
 NPassosCor	7
DeltaShunt	3.00
TetaIni	-0.10
TetaFim	0.10
I[mA]	  34.0
ACV11A	DeltaPos^2	AMP10A	AMP01B_0	AMP02A_0	AMP02B_0	AMP03A_0	AMP03B_0	AMP03C_0	AMP04A_0	AMP04B_0	AMP05A_0	AMP05B_0	AMP06A_0	AMP06B_0	AMP07A_0	AMP07B_0	AMP08A_0	AMP08B_0	AMP09A_0	AMP09B_0	AMP10A_0	AMP10B_0	AMU11A_0	AMU11B_0	AMP12A_0	AMP12B_0	AMP01A_0	AMP01B_1	AMP02A_1	AMP02B_1	AMP03A_1	AMP03B_1	AMP03C_1	AMP04A_1	AMP04B_1	AMP05A_1	AMP05B_1	AMP06A_1	AMP06B_1	AMP07A_1	AMP07B_1	AMP08A_1	AMP08B_1	AMP09A_1	AMP09B_1	AMP10A_1	AMP10B_1	AMU11A_1	AMU11B_1	AMP12A_1	AMP12B_1	AMP01A_1	
-0.1000	 2.60588035864767E-0004	0.1912	-1.4665	-0.7067	0.4977	1.0523	2.3482	0.6528	0.3042	-1.0857	-0.2654	1.9249	1.9159	-0.2622	0.4345	-0.6803	0.5307	0.2671	0.8053	-0.0958	0.1912	-0.1834	0.0640	1.8714	1.6339	1.3961	0.9456	-1.4705	-0.7017	0.5133	1.0765	2.3342	0.6132	0.2881	-1.0933	-0.2690	1.9441	1.9227	-0.2719	0.4160	-0.6726	0.5422	0.2833	0.8252	-0.1210	0.1762	-0.1975	0.0554	1.8929	1.6471	1.3947	0.9371	
-0.0667	 1.45729871964507E-0004	0.3198	-1.1031	-0.4949	0.4722	0.8791	2.2759	0.6085	0.3607	-0.8321	0.1029	1.6075	1.6532	-0.4367	0.3079	-0.3576	0.6829	0.1633	0.5427	-0.0416	0.3198	0.0735	0.3490	1.7516	1.4262	1.1562	0.6938	-1.1067	-0.4915	0.4843	0.8973	2.2662	0.5793	0.3490	-0.8378	0.0997	1.6227	1.6593	-0.4434	0.2950	-0.3522	0.6912	0.1752	0.5579	-0.0604	0.3086	0.0625	0.3430	1.7684	1.4366	1.1556	0.6878	
-0.0333	 6.06971823977933E-0005	0.4502	-0.7309	-0.2780	0.4473	0.7027	2.2011	0.5614	0.4176	-0.5733	0.4784	1.2836	1.3852	-0.6154	0.1774	-0.0275	0.8391	0.0582	0.2763	0.0115	0.4502	0.3352	0.6404	1.6289	1.2149	0.9106	0.4370	-0.7338	-0.2765	0.4551	0.7149	2.1956	0.5432	0.4098	-0.5780	0.4760	1.2945	1.3894	-0.6192	0.1698	-0.0244	0.8440	0.0659	0.2860	-0.0004	0.4428	0.3283	0.6375	1.6408	1.2213	0.9108	0.4334	
0.0000	 1.44858219886691E-0005	0.5808	-0.3542	-0.0591	0.4221	0.5249	2.1250	0.5134	0.4751	-0.3118	0.8564	0.9556	1.1138	-0.7964	0.0445	0.3063	0.9971	-0.0473	0.0073	0.0640	0.5808	0.6004	0.9348	1.5042	0.9989	0.6620	0.1773	-0.3577	-0.0596	0.4255	0.5311	2.1251	0.5068	0.4717	-0.3144	0.8539	0.9624	1.1174	-0.7967	0.0429	0.3066	0.9986	-0.0435	0.0120	0.0587	0.5775	0.5968	0.9349	1.5118	1.0031	0.6633	0.1775	
0.0333	 6.95579367121880E-0006	0.7121	0.0229	0.1612	0.3974	0.3466	2.0479	0.4641	0.5321	-0.0492	1.2361	0.6274	0.8410	-0.9785	-0.0897	0.6418	1.1566	-0.1528	-0.2617	0.1164	0.7121	0.8666	1.2296	1.3788	0.7825	0.4120	-0.0832	0.0197	0.1587	0.3966	0.3472	2.0533	0.4682	0.5332	-0.0511	1.2342	0.6306	0.8439	-0.9755	-0.0853	0.6400	1.1539	-0.1530	-0.2618	0.1176	0.7125	0.8659	1.2330	1.3826	0.7833	0.4146	-0.0806	
0.0667	 3.42664985908489E-0005	0.8433	0.4004	0.3816	0.3733	0.1682	1.9703	0.4133	0.5892	0.2133	1.6152	0.2975	0.5676	-1.1607	-0.2244	0.9775	1.3159	-0.2576	-0.5304	0.1679	0.8433	1.1324	1.5247	1.2538	0.5654	0.1611	-0.3452	0.3978	0.3769	0.3684	0.1633	1.9809	0.4283	0.5944	0.2129	1.6146	0.2970	0.5697	-1.1546	-0.2146	0.9745	1.3098	-0.2619	-0.5360	0.1752	0.8473	1.1351	1.5324	1.2543	0.5635	0.1650	-0.3399	
0.1000	 9.90099515039552E-0005	0.9733	0.7770	0.6005	0.3494	-0.0085	1.8925	0.3618	0.6454	0.4742	1.9910	-0.0309	0.2957	-1.3420	-0.3593	1.3115	1.4745	-0.3620	-0.7985	0.2186	0.9733	1.3962	1.8181	1.1299	0.3491	-0.0883	-0.6069	0.7746	0.5939	0.3407	-0.0196	1.9078	0.3881	0.6547	0.4749	1.9921	-0.0359	0.2968	-1.3325	-0.3443	1.3069	1.4650	-0.3702	-0.8097	0.2328	0.9813	1.4027	1.8298	1.1256	0.3441	-0.0835	-0.5993	
