Arquivo: c:\arq\medidas\BBA_0105_072004\BBA_AMP04B_V.dat
Data: 0105	 Hora:  0743
Comentário: 
NomeParametro	 ValorParametro
Nmedias	5
PausaCorretora	3000
PausaShunt	2000
PausaLeitura	500
NumCiclos	3
 NPassosCor	7
DeltaShunt	3.00
TetaIni	-0.10
TetaFim	0.10
I[mA]	 144.5
ACV11A	DeltaPos^2	AMP04B	AMP01B_0	AMP02A_0	AMP02B_0	AMP03A_0	AMP03B_0	AMP03C_0	AMP04A_0	AMP04B_0	AMP05A_0	AMP05B_0	AMP06A_0	AMP06B_0	AMP07A_0	AMP07B_0	AMP08A_0	AMP08B_0	AMP09A_0	AMP09B_0	AMP10A_0	AMP10B_0	AMU11A_0	AMU11B_0	AMP12A_0	AMP12B_0	AMP01A_0	AMP01B_1	AMP02A_1	AMP02B_1	AMP03A_1	AMP03B_1	AMP03C_1	AMP04A_1	AMP04B_1	AMP05A_1	AMP05B_1	AMP06A_1	AMP06B_1	AMP07A_1	AMP07B_1	AMP08A_1	AMP08B_1	AMP09A_1	AMP09B_1	AMP10A_1	AMP10B_1	AMU11A_1	AMU11B_1	AMP12A_1	AMP12B_1	AMP01A_1	
-0.1000	 2.48642671305447E-0004	-1.0085	-1.3693	-0.6732	0.4531	0.9647	2.3622	0.7230	0.3564	-1.0085	-0.1743	1.8157	1.8225	-0.3295	0.3598	-0.5816	0.5866	0.2662	0.7632	-0.1483	0.1891	-0.1095	0.1579	1.8035	1.5464	1.3371	0.9001	-1.3838	-0.6770	0.4653	0.9885	2.3543	0.6948	0.3420	-1.0239	-0.1998	1.8340	1.8403	-0.3154	0.3725	-0.6060	0.5737	0.2712	0.7792	-0.1487	0.1824	-0.1263	0.1408	1.8208	1.5633	1.3449	0.9016	
-0.0667	 1.06000643444259E-0004	-0.7806	-1.0371	-0.4739	0.4421	0.8234	2.2829	0.6505	0.3951	-0.7806	0.1612	1.5310	1.5859	-0.4859	0.2486	-0.2907	0.7210	0.1623	0.5139	-0.0823	0.3160	0.1220	0.4108	1.7070	1.3652	1.1152	0.6614	-1.0472	-0.4765	0.4500	0.8392	2.2785	0.6327	0.3863	-0.7915	0.1444	1.5429	1.5973	-0.4765	0.2566	-0.3064	0.7125	0.1658	0.5247	-0.0827	0.3117	0.1111	0.3998	1.7184	1.3762	1.1207	0.6630	
-0.0333	 2.14746374429061E-0005	-0.5491	-0.6980	-0.2706	0.4315	0.6801	2.2015	0.5763	0.4347	-0.5491	0.5020	1.2413	1.3447	-0.6450	0.1346	0.0055	0.8584	0.0576	0.2608	-0.0164	0.4447	0.3572	0.6683	1.6085	1.1810	0.8889	0.4188	-0.7032	-0.2723	0.4348	0.6878	2.2003	0.5686	0.4310	-0.5541	0.4943	1.2466	1.3501	-0.6409	0.1381	-0.0014	0.8548	0.0591	0.2660	-0.0167	0.4429	0.3526	0.6637	1.6135	1.1859	0.8917	0.4197	
0.0000	 1.48521178049576E-0006	-0.3155	-0.3554	-0.0655	0.4208	0.5358	2.1193	0.5012	0.4746	-0.3155	0.8445	0.9479	1.1007	-0.8061	0.0189	0.3049	0.9972	-0.0481	0.0052	0.0493	0.5740	0.5952	0.9279	1.5091	0.9940	0.6597	0.1737	-0.3558	-0.0660	0.4199	0.5350	2.1216	0.5035	0.4752	-0.3152	0.8457	0.9474	1.1002	-0.8071	0.0174	0.3067	0.9986	-0.0478	0.0053	0.0488	0.5741	0.5968	0.9295	1.5074	0.9922	0.6599	0.1749	
0.0333	 4.84655494235370E-0005	-0.0810	-0.0120	0.1410	0.4105	0.3909	2.0357	0.4244	0.5138	-0.0810	1.1891	0.6545	0.8554	-0.9681	-0.0975	0.6052	1.1368	-0.1538	-0.2502	0.1152	0.7036	0.8341	1.1882	1.4082	0.8053	0.4294	-0.0723	-0.0075	0.1416	0.4045	0.3816	2.0419	0.4380	0.5203	-0.0749	1.1994	0.6472	0.8488	-0.9743	-0.1040	0.6163	1.1430	-0.1554	-0.2559	0.1146	0.7064	0.8427	1.1965	1.4002	0.7974	0.4272	-0.0714	
0.0667	 1.55769744799767E-0004	0.1542	0.3312	0.3473	0.4002	0.2461	1.9516	0.3471	0.5536	0.1542	1.5332	0.3596	0.6096	-1.1302	-0.2147	0.9066	1.2768	-0.2595	-0.5061	0.1804	0.8335	1.0737	1.4484	1.3078	0.6165	0.1987	-0.3188	0.3405	0.3487	0.3900	0.2286	1.9614	0.3707	0.5647	0.1654	1.5523	0.3459	0.5968	-1.1416	-0.2263	0.9261	1.2877	-0.2626	-0.5168	0.1795	0.8385	1.0883	1.4631	1.2936	0.6022	0.1936	-0.3188	
0.1000	 3.28441442458550E-0004	0.3876	0.6741	0.5528	0.3905	0.1021	1.8672	0.2688	0.5921	0.3876	1.8750	0.0652	0.3646	-1.2916	-0.3315	1.2067	1.4161	-0.3646	-0.7616	0.2453	0.9625	1.3114	1.7082	1.2083	0.4281	-0.0318	-0.5662	0.6881	0.5554	0.3758	0.0762	1.8806	0.3030	0.6086	0.4041	1.9032	0.0454	0.3460	-1.3081	-0.3479	1.2352	1.4316	-0.3693	-0.7776	0.2442	0.9696	1.3321	1.7292	1.1878	0.4076	-0.0395	-0.5658	
