Arquivo: c:\arq\medidas\BBA_0105_072004\BBA_AMU11B_V.dat
Data: 0105	 Hora:  0826
Comentário: 
NomeParametro	 ValorParametro
Nmedias	5
PausaCorretora	3000
PausaShunt	2000
PausaLeitura	500
NumCiclos	3
 NPassosCor	7
DeltaShunt	3.00
TetaIni	-0.10
TetaFim	0.10
I[mA]	  33.9
ACV11B	DeltaPos^2	AMU11B	AMP01B_0	AMP02A_0	AMP02B_0	AMP03A_0	AMP03B_0	AMP03C_0	AMP04A_0	AMP04B_0	AMP05A_0	AMP05B_0	AMP06A_0	AMP06B_0	AMP07A_0	AMP07B_0	AMP08A_0	AMP08B_0	AMP09A_0	AMP09B_0	AMP10A_0	AMP10B_0	AMU11A_0	AMU11B_0	AMP12A_0	AMP12B_0	AMP01A_0	AMP01B_1	AMP02A_1	AMP02B_1	AMP03A_1	AMP03B_1	AMP03C_1	AMP04A_1	AMP04B_1	AMP05A_1	AMP05B_1	AMP06A_1	AMP06B_1	AMP07A_1	AMP07B_1	AMP08A_1	AMP08B_1	AMP09A_1	AMP09B_1	AMP10A_1	AMP10B_1	AMU11A_1	AMU11B_1	AMP12A_1	AMP12B_1	AMP01A_1	
-0.1000	 6.73409052061185E-0003	0.6768	0.5590	0.3357	0.0049	-0.4158	2.3207	1.3146	0.9811	0.4724	1.7894	-0.1777	0.3375	-0.9927	0.1990	0.8840	1.1111	-0.6515	-1.0426	0.7253	1.2322	1.2716	1.4026	0.6768	0.1831	0.1063	-0.1992	0.6643	0.3795	-0.0495	-0.5331	2.3459	1.4172	1.0465	0.5659	1.8961	-0.3153	0.2447	-1.0112	0.2243	0.9455	1.1194	-0.7280	-1.1695	0.8114	1.3133	1.3489	1.4500	0.5731	0.0827	0.0418	-0.2391	
-0.0667	 3.53475428512025E-0003	0.9446	0.2760	0.2159	0.1409	-0.1147	2.2541	1.0497	0.8182	0.2264	1.5007	0.1802	0.5803	-0.9357	0.1429	0.7090	1.0801	-0.4580	-0.7102	0.5115	1.0241	1.0632	1.2632	0.9446	0.4424	0.2778	-0.0868	0.3527	0.2477	0.1022	-0.1995	2.2737	1.1262	0.8642	0.2939	1.5790	0.0813	0.5136	-0.9496	0.1609	0.7552	1.0871	-0.5126	-0.8026	0.5727	1.0825	1.1198	1.2997	0.8710	0.3703	0.2314	-0.1160	
-0.0333	 1.14527721090955E-0003	1.2171	-0.0128	0.0934	0.2793	0.1925	2.1862	0.7801	0.6512	-0.0247	1.2054	0.5451	0.8282	-0.8776	0.0868	0.5299	1.0484	-0.2609	-0.3710	0.2936	0.8127	0.8505	1.1206	1.2171	0.7068	0.4532	0.0276	0.0313	0.1115	0.2571	0.1443	2.1965	0.8233	0.6774	0.0139	1.2500	0.4885	0.7902	-0.8858	0.0966	0.5562	1.0525	-0.2919	-0.4235	0.3282	0.8456	0.8829	1.1407	1.1749	0.6657	0.4267	0.0110	
0.0000	 7.80443890569468E-0005	1.4908	-0.3041	-0.0309	0.4182	0.5015	2.1178	0.5087	0.4834	-0.2773	0.9069	0.9111	1.0779	-0.8186	0.0301	0.3489	1.0161	-0.0625	-0.0295	0.0738	0.5996	0.6357	0.9777	1.4908	0.9729	0.6298	0.1432	-0.2927	-0.0261	0.4127	0.4884	2.1175	0.5171	0.4899	-0.2669	0.9187	0.8951	1.0673	-0.8215	0.0314	0.3561	1.0173	-0.0702	-0.0424	0.0827	0.6073	0.6443	0.9817	1.4782	0.9621	0.6227	0.1386	
0.0333	 2.13083372188367E-0004	1.7651	-0.5974	-0.1549	0.5574	0.8114	2.0486	0.2363	0.3148	-0.5305	0.6081	1.2787	1.3275	-0.7596	-0.0267	0.1676	0.9834	0.1369	0.3136	-0.1465	0.3853	0.4207	0.8336	1.7651	1.2398	0.8070	0.2590	-0.6157	-0.1625	0.5672	0.8304	2.0376	0.2119	0.3023	-0.5460	0.5897	1.2995	1.3422	-0.7580	-0.0343	0.1570	0.9832	0.1513	0.3369	-0.1625	0.3696	0.4072	0.8230	1.7786	1.2567	0.8184	0.2662	
0.0667	 1.72564345574994E-0003	2.0382	-0.8914	-0.2790	0.6963	1.1200	1.9801	-0.0355	0.1469	-0.7831	0.3075	1.6455	1.5771	-0.7003	-0.0833	-0.0142	0.9512	0.3359	0.6565	-0.3671	0.1714	0.2056	0.6893	2.0382	1.5057	0.9847	0.3760	-0.9445	-0.3016	0.7239	1.1780	1.9621	-0.0924	0.1135	-0.8301	0.2531	1.7125	1.6228	-0.6917	-0.0978	-0.0454	0.9472	0.3748	0.7213	-0.4114	0.1295	0.1662	0.6629	2.0868	1.5555	1.0171	0.3962	
0.1000	 4.72229745738289E-0003	2.3094	-1.1838	-0.4040	0.8350	1.4268	1.9111	-0.3072	-0.0212	-1.0354	0.0072	2.0103	1.8256	-0.6414	-0.1403	-0.1948	0.9192	0.5345	0.9984	-0.5883	-0.0423	-0.0082	0.5459	2.3094	1.7695	1.1618	0.4933	-1.2724	-0.4405	0.8804	1.5235	1.8853	-0.3983	-0.0757	-1.1134	-0.0837	2.1226	1.9016	-0.6259	-0.1622	-0.2477	0.9119	0.5983	1.1055	-0.6600	-0.1103	-0.0737	0.5032	2.3923	1.8528	1.2153	0.5265	
