Arquivo: c:\arq\medidas\BBA_0105_072004\BBA_AMP08A_V.dat
Data: 0105	 Hora:  0805
Comentário: 
NomeParametro	 ValorParametro
Nmedias	5
PausaCorretora	3000
PausaShunt	2000
PausaLeitura	500
NumCiclos	3
 NPassosCor	7
DeltaShunt	3.00
TetaIni	-0.10
TetaFim	0.10
I[mA]	  45.6
ACV03B	DeltaPos^2	AMP08A	AMP01B_0	AMP02A_0	AMP02B_0	AMP03A_0	AMP03B_0	AMP03C_0	AMP04A_0	AMP04B_0	AMP05A_0	AMP05B_0	AMP06A_0	AMP06B_0	AMP07A_0	AMP07B_0	AMP08A_0	AMP08B_0	AMP09A_0	AMP09B_0	AMP10A_0	AMP10B_0	AMU11A_0	AMU11B_0	AMP12A_0	AMP12B_0	AMP01A_0	AMP01B_1	AMP02A_1	AMP02B_1	AMP03A_1	AMP03B_1	AMP03C_1	AMP04A_1	AMP04B_1	AMP05A_1	AMP05B_1	AMP06A_1	AMP06B_1	AMP07A_1	AMP07B_1	AMP08A_1	AMP08B_1	AMP09A_1	AMP09B_1	AMP10A_1	AMP10B_1	AMU11A_1	AMU11B_1	AMP12A_1	AMP12B_1	AMP01A_1	
-0.1000	 5.23183071353622E-0004	1.4036	0.3952	0.5791	0.8916	0.9134	1.4138	-0.9993	-0.1467	-0.6228	0.7341	1.5938	1.3716	-1.1497	-0.7099	0.6044	1.4036	0.5579	0.7288	-0.8594	-0.0087	0.5223	1.1834	1.8401	0.9929	0.0909	-0.7158	0.4288	0.6033	0.9011	0.9146	1.3945	-1.0343	-0.1540	-0.6044	0.7672	1.5756	1.3515	-1.1736	-0.7374	0.6417	1.4264	0.5773	0.7475	-0.8927	-0.0265	0.5284	1.2021	1.8431	0.9841	0.0670	-0.7475	
-0.0667	 3.24920677800281E-0004	1.2798	0.1660	0.3813	0.7409	0.7855	1.6393	-0.5187	0.0535	-0.5157	0.7837	1.3818	1.2816	-1.0421	-0.4739	0.5195	1.2798	0.3626	0.4910	-0.5681	0.1807	0.5535	1.1111	1.7300	0.9880	0.2659	-0.4380	0.1926	0.4004	0.7484	0.7864	1.6243	-0.5460	0.0479	-0.5009	0.8099	1.3677	1.2658	-1.0609	-0.4957	0.5491	1.2975	0.3776	0.5057	-0.5945	0.1665	0.5585	1.1259	1.7322	0.9811	0.2471	-0.4631	
-0.0333	 1.75480988235100E-0004	1.1548	-0.0634	0.1827	0.5893	0.6564	1.8654	-0.0350	0.2557	-0.4083	0.8334	1.1689	1.1909	-0.9335	-0.2367	0.4341	1.1548	0.1661	0.2523	-0.2749	0.3712	0.5852	1.0388	1.6185	0.9832	0.4413	-0.1596	-0.0440	0.1968	0.5949	0.6570	1.8546	-0.0550	0.2508	-0.3976	0.8527	1.1586	1.1789	-0.9474	-0.2526	0.4561	1.1680	0.1771	0.2629	-0.2944	0.3607	0.5890	1.0495	1.6205	0.9782	0.4278	-0.1779	
0.0000	 7.30351450530326E-0005	1.0286	-0.2952	-0.0181	0.4366	0.5258	2.0926	0.4519	0.4579	-0.2999	0.8836	0.9535	1.0987	-0.8240	0.0021	0.3481	1.0286	-0.0325	0.0102	0.0202	0.5629	0.6175	0.9660	1.5058	0.9783	0.6183	0.1205	-0.2828	-0.0092	0.4403	0.5264	2.0856	0.4386	0.4554	-0.2929	0.8960	0.9469	1.0907	-0.8331	-0.0079	0.3622	1.0371	-0.0251	0.0173	0.0075	0.5563	0.6196	0.9730	1.5073	0.9750	0.6099	0.1088	
0.0333	 1.33214977868772E-0005	0.8999	-0.5324	-0.2230	0.2804	0.3926	2.3236	0.9477	0.6652	-0.1884	0.9358	0.7336	1.0040	-0.7127	0.2458	0.2603	0.8999	-0.2350	-0.2363	0.3221	0.7595	0.6505	0.8919	1.3903	0.9724	0.7979	0.4076	-0.5272	-0.2189	0.2820	0.3929	2.3212	0.9419	0.6649	-0.1853	0.9414	0.7306	1.0008	-0.7164	0.2416	0.2662	0.9033	-0.2320	-0.2332	0.3168	0.7563	0.6512	0.8951	1.3913	0.9710	0.7947	0.4022	
0.0667	 2.16744978098173E-0006	0.7699	-0.7717	-0.4292	0.1224	0.2574	2.5559	1.4474	0.8751	-0.0748	0.9898	0.5103	0.9078	-0.6003	0.4915	0.1723	0.7699	-0.4399	-0.4864	0.6269	0.9578	0.6856	0.8177	1.2731	0.9661	0.9797	0.6969	-0.7740	-0.4308	0.1217	0.2572	2.5578	1.4496	0.8760	-0.0755	0.9881	0.5111	0.9090	-0.5987	0.4935	0.1702	0.7687	-0.4411	-0.4876	0.6291	0.9585	0.6850	0.8169	1.2732	0.9670	0.9816	0.6990	
0.1000	 3.77000579980604E-0005	0.6394	-1.0126	-0.6373	-0.0371	0.1213	2.7886	1.9478	1.0861	0.0397	1.0447	0.2844	0.8108	-0.4873	0.7386	0.0840	0.6394	-0.6462	-0.7384	0.9339	1.1579	0.7204	0.7433	1.1542	0.9594	1.1627	0.9888	-1.0218	-0.6438	-0.0397	0.1211	2.7944	1.9571	1.0881	0.0350	1.0360	0.2887	0.8160	-0.4807	0.7466	0.0739	0.6336	-0.6512	-0.7432	0.9426	1.1625	0.7188	0.7386	1.1539	0.9624	1.1694	0.9972	
