Arquivo: c:\arq\medidas\BBA_0406_072001\BBA_AMP05A_V.dat
Data: 0406	 Hora:  0746
Comentário: 
NomeParametro	 ValorParametro
Nmedias	5
PausaCorretora	3000
PausaShunt	2000
PausaLeitura	500
NumCiclos	3
 NPassosCor	7
DeltaShunt	3.00
TetaIni	-0.10
TetaFim	0.10
I[mA]	 125.7
ACV11B	DeltaPos^2	AMP05A	AMP01B_0	AMP02A_0	AMP02B_0	AMP03A_0	AMP03B_0	AMP03C_0	AMP04A_0	AMP04B_0	AMP05A_0	AMP05B_0	AMP06A_0	AMP06B_0	AMP07A_0	AMP07B_0	AMP08A_0	AMP08B_0	AMP09A_0	AMP09B_0	AMP10A_0	AMP10B_0	AMU11A_0	AMU11B_0	AMP12A_0	AMP12B_0	AMP01A_0	AMP01B_1	AMP02A_1	AMP02B_1	AMP03A_1	AMP03B_1	AMP03C_1	AMP04A_1	AMP04B_1	AMP05A_1	AMP05B_1	AMP06A_1	AMP06B_1	AMP07A_1	AMP07B_1	AMP08A_1	AMP08B_1	AMP09A_1	AMP09B_1	AMP10A_1	AMP10B_1	AMU11A_1	AMU11B_1	AMP12A_1	AMP12B_1	AMP01A_1	
-0.1000	 2.93955468871578E-0003	1.7125	0.5008	0.3201	0.0610	-0.2997	2.3284	1.1677	0.9163	0.4067	1.7125	-0.0588	0.3957	-1.0039	0.1271	0.8480	1.1181	-0.5888	-0.9361	0.6442	1.1578	1.1815	1.3148	0.7604	0.2480	0.1303	-0.2033	0.5769	0.3569	0.0354	-0.3650	2.3341	1.2103	0.9491	0.4689	1.7924	-0.0944	0.3489	-1.0689	0.0490	0.9463	1.1805	-0.5786	-0.9582	0.6053	1.1555	1.2400	1.3882	0.7111	0.1862	0.0820	-0.2416	
-0.0667	 1.30084105394592E-0003	1.4509	0.2446	0.2068	0.1742	-0.0424	2.2791	0.9565	0.7786	0.1877	1.4509	0.2555	0.6113	-0.9523	0.0795	0.6919	1.0902	-0.4151	-0.6405	0.4472	0.9711	1.0058	1.2058	0.9923	0.4749	0.2877	-0.0938	0.2946	0.2314	0.1575	-0.0856	2.2826	0.9840	0.8003	0.2287	1.5046	0.2317	0.5802	-0.9956	0.0277	0.7575	1.1321	-0.4083	-0.6549	0.4210	0.9697	1.0450	1.2551	0.9595	0.4338	0.2557	-0.1191	
-0.0333	 2.95568613729038E-0004	1.1845	-0.0163	0.0913	0.2888	0.2196	2.2294	0.7410	0.6387	-0.0358	1.1845	0.5751	0.8308	-0.8998	0.0316	0.5330	1.0623	-0.2384	-0.3397	0.2466	0.7818	0.8272	1.0949	1.2280	0.7055	0.4484	0.0174	0.0075	0.1031	0.2810	0.1992	2.2313	0.7538	0.6490	-0.0161	1.2100	0.5635	0.8164	-0.9204	0.0070	0.5643	1.0822	-0.2349	-0.3460	0.2344	0.7809	0.8461	1.1184	1.2120	0.6856	0.4329	0.0055	
0.0000	 3.62054880000685E-0006	0.9152	-0.2793	-0.0255	0.4040	0.4829	2.1796	0.5248	0.4978	-0.2604	0.9152	0.8950	1.0517	-0.8465	-0.0164	0.3728	1.0338	-0.0606	-0.0369	0.0447	0.5909	0.6472	0.9838	1.4648	0.9381	0.6103	0.1294	-0.2822	-0.0266	0.4053	0.4858	2.1791	0.5222	0.4964	-0.2625	0.9127	0.8961	1.0537	-0.8445	-0.0133	0.3696	1.0318	-0.0604	-0.0353	0.0458	0.5906	0.6453	0.9816	1.4659	0.9394	0.6118	0.1308	
0.0333	 4.35373716764462E-0004	0.6461	-0.5435	-0.1424	0.5194	0.7468	2.1296	0.3086	0.3567	-0.4857	0.6461	1.2172	1.2729	-0.7929	-0.0642	0.2117	1.0053	0.1180	0.2669	-0.1574	0.3991	0.4668	0.8720	1.7021	1.1704	0.7728	0.2423	-0.5736	-0.1563	0.5298	0.7734	2.1265	0.2899	0.3433	-0.5096	0.6154	1.2310	1.2911	-0.7684	-0.0343	0.1747	0.9815	0.1150	0.2770	-0.1431	0.3996	0.4446	0.8442	1.7201	1.1935	0.7908	0.2568	
0.0667	 1.60326012103196E-0003	0.3750	-0.8088	-0.2598	0.6344	1.0102	2.0795	0.0918	0.2154	-0.7113	0.3750	1.5389	1.4944	-0.7393	-0.1123	0.0504	0.9761	0.2966	0.5713	-0.3606	0.2069	0.2864	0.7600	1.9389	1.4031	0.9355	0.3555	-0.8661	-0.2868	0.6545	1.0604	2.0737	0.0573	0.1903	-0.7572	0.3153	1.5651	1.5292	-0.6919	-0.0552	-0.0211	0.9314	0.2907	0.5899	-0.3331	0.2078	0.2434	0.7063	1.9741	1.4474	0.9707	0.3838	
0.1000	 3.48080863828340E-0003	0.1026	-1.0749	-0.3779	0.7497	1.2741	2.0302	-0.1253	0.0738	-0.9372	0.1026	1.8607	1.7163	-0.6852	-0.1606	-0.1110	0.9468	0.4755	0.8761	-0.5648	0.0142	0.1056	0.6480	2.1753	1.6355	1.0985	0.4698	-1.1587	-0.4175	0.7790	1.3470	2.0215	-0.1757	0.0365	-1.0050	0.0147	1.8992	1.7674	-0.6154	-0.0765	-0.2167	0.8805	0.4666	0.9031	-0.5236	0.0160	0.0421	0.5685	2.2273	1.7013	1.1507	0.5113	
