Arquivo: c:\arq\medidas\BBA_0406_072001\BBA_AMP10A_V.dat
Data: 0406	 Hora:  0817
Comentário: 
NomeParametro	 ValorParametro
Nmedias	5
PausaCorretora	3000
PausaShunt	2000
PausaLeitura	500
NumCiclos	3
 NPassosCor	7
DeltaShunt	3.00
TetaIni	-0.10
TetaFim	0.10
I[mA]	  34.0
ACV11A	DeltaPos^2	AMP10A	AMP01B_0	AMP02A_0	AMP02B_0	AMP03A_0	AMP03B_0	AMP03C_0	AMP04A_0	AMP04B_0	AMP05A_0	AMP05B_0	AMP06A_0	AMP06B_0	AMP07A_0	AMP07B_0	AMP08A_0	AMP08B_0	AMP09A_0	AMP09B_0	AMP10A_0	AMP10B_0	AMU11A_0	AMU11B_0	AMP12A_0	AMP12B_0	AMP01A_0	AMP01B_1	AMP02A_1	AMP02B_1	AMP03A_1	AMP03B_1	AMP03C_1	AMP04A_1	AMP04B_1	AMP05A_1	AMP05B_1	AMP06A_1	AMP06B_1	AMP07A_1	AMP07B_1	AMP08A_1	AMP08B_1	AMP09A_1	AMP09B_1	AMP10A_1	AMP10B_1	AMU11A_1	AMU11B_1	AMP12A_1	AMP12B_1	AMP01A_1	
-0.1000	 2.33768543995955E-0004	0.1852	-1.4443	-0.6935	0.4983	1.0454	2.4037	0.6464	0.3050	-1.0751	-0.2507	1.9157	1.9037	-0.2709	0.4244	-0.6697	0.5378	0.2685	0.8043	-0.1070	0.1852	-0.1778	0.0778	1.8661	1.6217	1.3805	0.9284	-1.4442	-0.6874	0.5135	1.0665	2.3871	0.6073	0.2893	-1.0811	-0.2511	1.9298	1.9087	-0.2814	0.4041	-0.6593	0.5495	0.2834	0.8210	-0.1302	0.1713	-0.1910	0.0691	1.8832	1.6340	1.3780	0.9173	
-0.0667	 1.22047359443950E-0004	0.3131	-1.0832	-0.4826	0.4740	0.8740	2.3309	0.6000	0.3601	-0.8237	0.1146	1.6013	1.6436	-0.4446	0.2978	-0.3488	0.6890	0.1652	0.5437	-0.0532	0.3131	0.0766	0.3606	1.7479	1.4168	1.1418	0.6774	-1.0837	-0.4784	0.4850	0.8894	2.3189	0.5717	0.3490	-0.8281	0.1141	1.6115	1.6476	-0.4518	0.2833	-0.3416	0.6972	0.1760	0.5559	-0.0700	0.3029	0.0670	0.3541	1.7606	1.4255	1.1402	0.6696	
-0.0333	 4.82321730738507E-0005	0.4429	-0.7142	-0.2678	0.4495	0.6997	2.2560	0.5522	0.4163	-0.5673	0.4869	1.2802	1.3777	-0.6222	0.1682	-0.0213	0.8441	0.0606	0.2789	0.0003	0.4429	0.3365	0.6493	1.6272	1.2071	0.8982	0.4219	-0.7149	-0.2653	0.4565	0.7094	2.2490	0.5347	0.4090	-0.5707	0.4863	1.2868	1.3803	-0.6265	0.1593	-0.0168	0.8489	0.0674	0.2867	-0.0101	0.4360	0.3301	0.6454	1.6353	1.2127	0.8974	0.4172	
0.0000	 7.18823773797516E-0006	0.5727	-0.3413	-0.0507	0.4249	0.5235	2.1807	0.5035	0.4728	-0.3083	0.8612	0.9551	1.1091	-0.8015	0.0364	0.3098	1.0008	-0.0443	0.0114	0.0536	0.5727	0.5991	0.9406	1.5041	0.9941	0.6519	0.1641	-0.3423	-0.0501	0.4275	0.5276	2.1782	0.4970	0.4702	-0.3096	0.8604	0.9586	1.1105	-0.8025	0.0338	0.3106	1.0024	-0.0415	0.0147	0.0495	0.5704	0.5962	0.9392	1.5077	0.9965	0.6520	0.1629	
0.0333	 3.95905236122953E-0006	0.7032	0.0325	0.1678	0.4007	0.3473	2.1036	0.4531	0.5290	-0.0484	1.2378	0.6300	0.8383	-0.9820	-0.0966	0.6425	1.1585	-0.1491	-0.2556	0.1064	0.7032	0.8624	1.2323	1.3808	0.7796	0.4038	-0.0949	0.0313	0.1667	0.3990	0.3450	2.1065	0.4583	0.5310	-0.0480	1.2367	0.6294	0.8387	-0.9802	-0.0935	0.6405	1.1565	-0.1506	-0.2571	0.1093	0.7047	0.8633	1.2335	1.3793	0.7789	0.4047	-0.0928	
0.0667	 3.78340174626735E-0005	0.8338	0.4065	0.3863	0.3770	0.1708	2.0264	0.4021	0.5853	0.2121	1.6133	0.3032	0.5674	-1.1627	-0.2304	0.9759	1.3167	-0.2539	-0.5232	0.1586	0.8338	1.1262	1.5241	1.2576	0.5652	0.1554	-0.3547	0.4049	0.3832	0.3709	0.1629	2.0334	0.4184	0.5914	0.2139	1.6122	0.2990	0.5667	-1.1577	-0.2210	0.9708	1.3111	-0.2597	-0.5293	0.1678	0.8393	1.1301	1.5280	1.2520	0.5612	0.1573	-0.3496	
0.1000	 1.06895290101822E-0004	0.9631	0.7784	0.6030	0.3535	-0.0040	1.9489	0.3505	0.6407	0.4703	1.9853	-0.0216	0.2984	-1.3420	-0.3630	1.3060	1.4727	-0.3580	-0.7889	0.2104	0.9631	1.3874	1.8141	1.1356	0.3522	-0.0917	-0.6142	0.7765	0.5981	0.3433	-0.0179	1.9609	0.3776	0.6511	0.4733	1.9841	-0.0297	0.2965	-1.3338	-0.3486	1.2984	1.4640	-0.3678	-0.7997	0.2257	0.9722	1.3949	1.8202	1.1252	0.3446	-0.0889	-0.6056	
