Arquivo: c:\arq\medidas\BBA_0406_072001\BBA_AMP02A_H.dat
Data: 0406	 Hora:  0723
Comentário: 
NomeParametro	 ValorParametro
Nmedias	5
PausaCorretora	3000
PausaShunt	2000
PausaLeitura	500
NumCiclos	3
 NPassosCor	7
DeltaShunt	3.00
TetaIni	-0.10
TetaFim	0.10
I[mA]	 127.1
ACH09B	DeltaPos^2	AMP02A	AMP01B_0	AMP02A_0	AMP02B_0	AMP03A_0	AMP03B_0	AMP03C_0	AMP04A_0	AMP04B_0	AMP05A_0	AMP05B_0	AMP06A_0	AMP06B_0	AMP07A_0	AMP07B_0	AMP08A_0	AMP08B_0	AMP09A_0	AMP09B_0	AMP10A_0	AMP10B_0	AMU11A_0	AMU11B_0	AMP12A_0	AMP12B_0	AMP01A_0	AMP01B_1	AMP02A_1	AMP02B_1	AMP03A_1	AMP03B_1	AMP03C_1	AMP04A_1	AMP04B_1	AMP05A_1	AMP05B_1	AMP06A_1	AMP06B_1	AMP07A_1	AMP07B_1	AMP08A_1	AMP08B_1	AMP09A_1	AMP09B_1	AMP10A_1	AMP10B_1	AMU11A_1	AMU11B_1	AMP12A_1	AMP12B_1	AMP01A_1	
-0.1000	 4.01881507392908E-0005	0.1575	-0.2378	0.1575	-2.5089	0.7113	0.1025	-1.9733	-0.5568	-0.6242	-1.5914	0.0664	0.8471	-0.8028	-1.2058	-0.9519	0.1489	0.5985	-1.4096	-1.2125	-0.0873	-0.2970	0.5205	0.4888	-1.0097	-1.1401	0.7840	-0.2392	0.1591	-2.5086	0.7133	0.1056	-1.9714	-0.5522	-0.6214	-1.5959	0.0632	0.8531	-0.7969	-1.2158	-0.9613	0.1560	0.6055	-1.4209	-1.2240	-0.0809	-0.2893	0.5128	0.4797	-1.0053	-1.1337	0.7842	
-0.0667	 2.16600225970057E-0004	0.3460	-0.5549	0.3460	-2.3424	0.3358	-0.3111	-2.1372	-0.4612	-0.4504	-1.6938	-0.1449	0.7892	-0.7540	-0.9837	-0.8337	-0.0262	0.4965	-1.0008	-0.8320	-0.1103	-0.4315	0.4603	0.5261	-0.8679	-1.1076	0.4027	-0.5548	0.3450	-2.3459	0.3450	-0.2976	-2.1305	-0.4535	-0.4483	-1.7032	-0.1489	0.8034	-0.7429	-1.0089	-0.8557	-0.0084	0.5133	-1.0276	-0.8604	-0.0964	-0.4138	0.4454	0.5065	-0.8612	-1.0949	0.4084	
-0.0333	 5.43577891327977E-0004	0.5357	-0.8760	0.5357	-2.1742	-0.0436	-0.7284	-2.3025	-0.3645	-0.2754	-1.7969	-0.3582	0.7307	-0.7049	-0.7599	-0.7145	-0.2029	0.3940	-0.5879	-0.4479	-0.1332	-0.5674	0.3986	0.5626	-0.7243	-1.0741	0.0174	-0.8741	0.5323	-2.1812	-0.0268	-0.7041	-2.2904	-0.3540	-0.2740	-1.8113	-0.3626	0.7533	-0.6887	-0.7997	-0.7490	-0.1742	0.4203	-0.6305	-0.4932	-0.1112	-0.5394	0.3759	0.5323	-0.7160	-1.0558	0.0287	
0.0000	 1.01056384362041E-0003	0.7269	-1.1993	0.7269	-2.0039	-0.4258	-1.1474	-2.4676	-0.2670	-0.0992	-1.9017	-0.5731	0.6724	-0.6546	-0.5350	-0.5960	-0.3794	0.2912	-0.1745	-0.0637	-0.1548	-0.7026	0.3343	0.5973	-0.5797	-1.0399	-0.3720	-1.1952	0.7200	-2.0152	-0.4010	-1.1121	-2.4501	-0.2533	-0.0992	-1.9209	-0.5780	0.7035	-0.6341	-0.5903	-0.6426	-0.3405	0.3269	-0.2323	-0.1253	-0.1258	-0.6651	0.3046	0.5566	-0.5697	-1.0158	-0.3539	
0.0333	 1.64468739704237E-0003	0.9176	-1.5236	0.9176	-1.8334	-0.8084	-1.5662	-2.6334	-0.1694	0.0766	-2.0073	-0.7888	0.6146	-0.6047	-0.3108	-0.4776	-0.5570	0.1885	0.2394	0.3212	-0.1766	-0.8385	0.2690	0.6308	-0.4350	-1.0055	-0.7623	-1.5175	0.9079	-1.8482	-0.7759	-1.5203	-2.6108	-0.1529	0.0759	-2.0311	-0.7937	0.6539	-0.5792	-0.3808	-0.5371	-0.5071	0.2341	0.1656	0.2427	-0.1394	-0.7904	0.2315	0.5792	-0.4224	-0.9747	-0.7393	
0.0667	 2.38391349300075E-0003	1.1087	-1.8485	1.1087	-1.6617	-1.1912	-1.9846	-2.7990	-0.0712	0.2530	-2.1140	-1.0051	0.5573	-0.5535	-0.0876	-0.3612	-0.7337	0.0863	0.6513	0.7036	-0.1968	-0.9729	0.2013	0.6621	-0.2883	-0.9689	-1.1541	-1.8404	1.0961	-1.6808	-1.1512	-1.9283	-2.7710	-0.0519	0.2511	-2.1423	-1.0105	0.6047	-0.5235	-0.1723	-0.4326	-0.6733	0.1413	0.5626	0.6092	-0.1525	-0.9149	0.1572	0.6007	-0.2743	-0.9331	-1.1246	
0.1000	 3.27154472733949E-0003	1.2995	-2.1727	1.2995	-1.4896	-1.5740	-2.4016	-2.9641	0.0275	0.4290	-2.2220	-1.2219	0.5004	-0.5019	0.1337	-0.2466	-0.9097	-0.0150	1.0612	1.0849	-0.2159	-1.1065	0.1322	0.6915	-0.1413	-0.9317	-1.5451	-2.1627	1.2840	-1.5129	-1.5257	-2.3343	-2.9307	0.0496	0.4261	-2.2549	-1.2276	0.5564	-0.4671	0.0347	-0.3295	-0.8391	0.0491	0.9579	0.9739	-0.1645	-1.0389	0.0808	0.6196	-0.1257	-0.8905	-1.5096	
