Arquivo: c:\arq\medidas\BBA_0406_072001\BBA_AMP08A_V.dat
Data: 0406	 Hora:  0805
Comentário: 
NomeParametro	 ValorParametro
Nmedias	5
PausaCorretora	3000
PausaShunt	2000
PausaLeitura	500
NumCiclos	3
 NPassosCor	7
DeltaShunt	3.00
TetaIni	-0.10
TetaFim	0.10
I[mA]	  54.2
ACV03B	DeltaPos^2	AMP08A	AMP01B_0	AMP02A_0	AMP02B_0	AMP03A_0	AMP03B_0	AMP03C_0	AMP04A_0	AMP04B_0	AMP05A_0	AMP05B_0	AMP06A_0	AMP06B_0	AMP07A_0	AMP07B_0	AMP08A_0	AMP08B_0	AMP09A_0	AMP09B_0	AMP10A_0	AMP10B_0	AMU11A_0	AMU11B_0	AMP12A_0	AMP12B_0	AMP01A_0	AMP01B_1	AMP02A_1	AMP02B_1	AMP03A_1	AMP03B_1	AMP03C_1	AMP04A_1	AMP04B_1	AMP05A_1	AMP05B_1	AMP06A_1	AMP06B_1	AMP07A_1	AMP07B_1	AMP08A_1	AMP08B_1	AMP09A_1	AMP09B_1	AMP10A_1	AMP10B_1	AMU11A_1	AMU11B_1	AMP12A_1	AMP12B_1	AMP01A_1	
-0.1000	 4.99675944248941E-0004	1.4027	0.4044	0.5844	0.8930	0.9143	1.4721	-1.0046	-0.1487	-0.6221	0.7306	1.5979	1.3714	-1.1485	-0.7106	0.6021	1.4027	0.5612	0.7342	-0.8688	-0.0165	0.5204	1.1865	1.8410	0.9884	0.0823	-0.7276	0.4373	0.6085	0.9027	0.9152	1.4532	-1.0385	-0.1557	-0.6044	0.7627	1.5807	1.3519	-1.1718	-0.7377	0.6383	1.4251	0.5800	0.7521	-0.9016	-0.0339	0.5271	1.2047	1.8441	0.9797	0.0588	-0.7590	
-0.0667	 3.11960592668105E-0004	1.2798	0.1759	0.3868	0.7428	0.7867	1.6967	-0.5254	0.0513	-0.5142	0.7815	1.3858	1.2800	-1.0415	-0.4760	0.5181	1.2798	0.3662	0.4966	-0.5782	0.1727	0.5512	1.1143	1.7311	0.9838	0.2574	-0.4498	0.2018	0.4056	0.7504	0.7878	1.6815	-0.5524	0.0457	-0.5000	0.8068	1.3721	1.2647	-1.0599	-0.4973	0.5471	1.2971	0.3811	0.5111	-0.6041	0.1591	0.5566	1.1288	1.7336	0.9771	0.2391	-0.4745	
-0.0333	 1.70464299386948E-0004	1.1558	-0.0535	0.1882	0.5918	0.6589	1.9209	-0.0444	0.2523	-0.4062	0.8322	1.1732	1.1887	-0.9336	-0.2405	0.4336	1.1558	0.1703	0.2583	-0.2860	0.3627	0.5827	1.0420	1.6208	0.9793	0.4330	-0.1715	-0.0345	0.2023	0.5975	0.6596	1.9107	-0.0643	0.2482	-0.3957	0.8511	1.1626	1.1772	-0.9472	-0.2561	0.4552	1.1689	0.1814	0.2691	-0.3050	0.3528	0.5862	1.0528	1.6225	0.9743	0.4194	-0.1897	
0.0000	 6.80736473213274E-0005	1.0309	-0.2847	-0.0123	0.4398	0.5290	2.1471	0.4401	0.4548	-0.2968	0.8836	0.9569	1.0957	-0.8252	-0.0030	0.3490	1.0309	-0.0275	0.0171	0.0085	0.5546	0.6154	0.9694	1.5087	0.9742	0.6098	0.1085	-0.2728	-0.0033	0.4432	0.5295	2.1404	0.4275	0.4525	-0.2899	0.8957	0.9505	1.0884	-0.8338	-0.0127	0.3625	1.0388	-0.0206	0.0240	-0.0035	0.5481	0.6174	0.9763	1.5100	0.9709	0.6011	0.0969	
0.0333	 1.25350919654460E-0005	0.9025	-0.5217	-0.2166	0.2837	0.3961	2.3770	0.9345	0.6620	-0.1844	0.9374	0.7358	1.0000	-0.7146	0.2392	0.2625	0.9025	-0.2301	-0.2290	0.3102	0.7509	0.6481	0.8958	1.3934	0.9679	0.7893	0.3950	-0.5166	-0.2128	0.2854	0.3965	2.3742	0.9292	0.6609	-0.1813	0.9427	0.7332	0.9969	-0.7180	0.2351	0.2682	0.9062	-0.2268	-0.2260	0.3049	0.7481	0.6491	0.8988	1.3944	0.9669	0.7860	0.3901	
0.0667	 2.08178110882287E-0006	0.7737	-0.7609	-0.4232	0.1260	0.2618	2.6078	1.4324	0.8711	-0.0704	0.9923	0.5120	0.9030	-0.6027	0.4841	0.1755	0.7737	-0.4344	-0.4785	0.6142	0.9489	0.6825	0.8215	1.2769	0.9618	0.9713	0.6843	-0.7632	-0.4247	0.1254	0.2619	2.6097	1.4343	0.8718	-0.0712	0.9906	0.5130	0.9041	-0.6011	0.4862	0.1732	0.7721	-0.4352	-0.4793	0.6161	0.9501	0.6819	0.8208	1.2772	0.9627	0.9729	0.6865	
0.1000	 3.91107524454083E-0005	0.6438	-1.0014	-0.6307	-0.0331	0.1265	2.8398	1.9306	1.0817	0.0448	1.0483	0.2859	0.8050	-0.4907	0.7303	0.0885	0.6438	-0.6399	-0.7295	0.9201	1.1487	0.7169	0.7471	1.1590	0.9555	1.1543	0.9759	-1.0107	-0.6375	-0.0359	0.1263	2.8452	1.9400	1.0840	0.0403	1.0396	0.2905	0.8105	-0.4838	0.7382	0.0782	0.6375	-0.6451	-0.7343	0.9291	1.1535	0.7152	0.7424	1.1585	0.9584	1.1613	0.9847	
