Arquivo: c:\arq\medidas\BBA_0406_072001\BBA_AMP03A_V.dat
Data: 0406	 Hora:  0730
Comentário: 
NomeParametro	 ValorParametro
Nmedias	5
PausaCorretora	3000
PausaShunt	2000
PausaLeitura	500
NumCiclos	3
 NPassosCor	7
DeltaShunt	3.00
TetaIni	-0.10
TetaFim	0.10
I[mA]	 126.7
ACV09A	DeltaPos^2	AMP03A	AMP01B_0	AMP02A_0	AMP02B_0	AMP03A_0	AMP03B_0	AMP03C_0	AMP04A_0	AMP04B_0	AMP05A_0	AMP05B_0	AMP06A_0	AMP06B_0	AMP07A_0	AMP07B_0	AMP08A_0	AMP08B_0	AMP09A_0	AMP09B_0	AMP10A_0	AMP10B_0	AMU11A_0	AMU11B_0	AMP12A_0	AMP12B_0	AMP01A_0	AMP01B_1	AMP02A_1	AMP02B_1	AMP03A_1	AMP03B_1	AMP03C_1	AMP04A_1	AMP04B_1	AMP05A_1	AMP05B_1	AMP06A_1	AMP06B_1	AMP07A_1	AMP07B_1	AMP08A_1	AMP08B_1	AMP09A_1	AMP09B_1	AMP10A_1	AMP10B_1	AMU11A_1	AMU11B_1	AMP12A_1	AMP12B_1	AMP01A_1	
-0.1000	 3.21893388251151E-0003	-0.3886	-0.2512	-0.2427	-0.2012	-0.3886	2.8069	2.0589	1.1372	0.0561	1.0262	0.2224	0.7878	-0.4331	0.8259	-0.0061	0.5664	-0.6953	-0.8278	0.4637	1.0564	1.2067	1.4048	0.7826	0.4251	0.6737	0.5405	-0.2814	-0.2859	-0.2655	-0.4724	2.8317	2.1443	1.1852	0.1176	1.0935	0.1282	0.7281	-0.4358	0.8581	0.0225	0.5615	-0.7536	-0.9185	0.5358	1.1168	1.2501	1.4233	0.7181	0.3878	0.7025	0.6082	
-0.0667	 1.44934474580025E-0003	-0.0927	-0.2827	-0.1850	-0.0013	-0.0927	2.6065	1.5616	0.9263	-0.0592	0.9720	0.4496	0.8843	-0.5525	0.5703	0.0951	0.7039	-0.4914	-0.5657	0.3352	0.9054	1.0128	1.2530	1.0150	0.6060	0.6677	0.4214	-0.3025	-0.2134	-0.0444	-0.1490	2.6225	1.6192	0.9583	-0.0179	1.0169	0.3862	0.8437	-0.5545	0.5918	0.1145	0.7008	-0.5309	-0.6270	0.3832	0.9456	1.0423	1.2657	0.9716	0.5805	0.6864	0.4659	
-0.0333	 3.44844335491798E-0004	0.2066	-0.3152	-0.1266	0.2009	0.2066	2.4038	1.0568	0.7129	-0.1757	0.9164	0.6787	0.9814	-0.6730	0.3118	0.1966	0.8427	-0.2857	-0.3009	0.2058	0.7521	0.8171	1.0992	1.2493	0.7888	0.6619	0.3015	-0.3243	-0.1403	0.1799	0.1786	2.4110	1.0843	0.7281	-0.1553	0.9391	0.6472	0.9614	-0.6745	0.3217	0.2063	0.8411	-0.3049	-0.3311	0.2287	0.7717	0.8315	1.1057	1.2277	0.7761	0.6704	0.3223	
0.0000	 1.16733347532193E-0006	0.5084	-0.3484	-0.0683	0.4043	0.5084	2.1983	0.5459	0.4975	-0.2928	0.8608	0.9096	1.0799	-0.7945	0.0509	0.2991	0.9825	-0.0775	-0.0336	0.0742	0.5980	0.6188	0.9446	1.4856	0.9736	0.6567	0.1809	-0.3473	-0.0673	0.4051	0.5088	2.1964	0.5436	0.4963	-0.2934	0.8601	0.9103	1.0800	-0.7950	0.0501	0.2990	0.9823	-0.0769	-0.0328	0.0727	0.5968	0.6183	0.9445	1.4861	0.9734	0.6555	0.1784	
0.0333	 4.20724585429801E-0004	0.8117	-0.3827	-0.0102	0.6083	0.8117	1.9920	0.0323	0.2811	-0.4104	0.8054	1.1417	1.1786	-0.9163	-0.2107	0.4012	1.1229	0.1317	0.2357	-0.0571	0.4427	0.4191	0.7879	1.7231	1.1595	0.6520	0.0605	-0.3710	0.0059	0.6313	0.8403	1.9798	-0.0005	0.2631	-0.4321	0.7817	1.1750	1.1995	-0.9162	-0.2232	0.3912	1.1245	0.1524	0.2675	-0.0837	0.4207	0.4034	0.7814	1.7455	1.1720	0.6405	0.0346	
0.0667	 1.58648468518401E-0003	1.1130	-0.4177	0.0476	0.8119	1.1130	1.7848	-0.4812	0.0652	-0.5273	0.7500	1.3727	1.2770	-1.0380	-0.4727	0.5035	1.2624	0.3400	0.5037	-0.1879	0.2883	0.2198	0.6307	1.9592	1.3443	0.6474	-0.0591	-0.3955	0.0788	0.8565	1.1703	1.7638	-0.5438	0.0307	-0.5699	0.7033	1.4374	1.3177	-1.0369	-0.4954	0.4833	1.2659	0.3807	0.5660	-0.2391	0.2456	0.1889	0.6177	2.0033	1.3699	0.6261	-0.1084	
0.1000	 3.51937846665959E-0003	1.4173	-0.4536	0.1061	1.0182	1.4173	1.5742	-1.0016	-0.1536	-0.6458	0.6939	1.6067	1.3764	-1.1616	-0.7382	0.6073	1.4044	0.5513	0.7753	-0.3202	0.1319	0.0168	0.4707	2.1982	1.5327	0.6432	-0.1800	-0.4211	0.1519	1.0847	1.5029	1.5436	-1.0944	-0.2046	-0.7094	0.6240	1.7035	1.4376	-1.1596	-0.7725	0.5776	1.4093	0.6122	0.8689	-0.3965	0.0679	-0.0287	0.4514	2.2638	1.5703	0.6120	-0.2527	
