Arquivo: c:\arq\medidas\BBA_0406_072001\BBA_AMP02B_H.dat
Data: 0406	 Hora:  0726
Comentário: 
NomeParametro	 ValorParametro
Nmedias	5
PausaCorretora	3000
PausaShunt	2000
PausaLeitura	500
NumCiclos	3
 NPassosCor	7
DeltaShunt	3.00
TetaIni	-0.10
TetaFim	0.10
I[mA]	 127.0
ACH07A	DeltaPos^2	AMP02B	AMP01B_0	AMP02A_0	AMP02B_0	AMP03A_0	AMP03B_0	AMP03C_0	AMP04A_0	AMP04B_0	AMP05A_0	AMP05B_0	AMP06A_0	AMP06B_0	AMP07A_0	AMP07B_0	AMP08A_0	AMP08B_0	AMP09A_0	AMP09B_0	AMP10A_0	AMP10B_0	AMU11A_0	AMU11B_0	AMP12A_0	AMP12B_0	AMP01A_0	AMP01B_1	AMP02A_1	AMP02B_1	AMP03A_1	AMP03B_1	AMP03C_1	AMP04A_1	AMP04B_1	AMP05A_1	AMP05B_1	AMP06A_1	AMP06B_1	AMP07A_1	AMP07B_1	AMP08A_1	AMP08B_1	AMP09A_1	AMP09B_1	AMP10A_1	AMP10B_1	AMU11A_1	AMU11B_1	AMP12A_1	AMP12B_1	AMP01A_1	
-0.1000	 6.25791793109854E-0003	-2.5830	0.0848	0.2452	-2.5830	0.3846	-0.0880	-1.9758	-0.3058	-0.4782	-2.1806	-0.4739	1.1175	-0.5257	-1.7347	-1.9499	-0.0823	0.8446	-0.4615	-0.7121	-0.3599	-0.5603	1.0637	1.0936	-1.1575	-1.3895	0.9460	0.0074	0.2872	-2.5514	0.3670	-0.1413	-2.0116	-0.3546	-0.4888	-2.0872	-0.4149	1.0288	-0.5897	-1.5811	-1.8056	-0.1690	0.7519	-0.3437	-0.5697	-0.4025	-0.6355	1.0770	1.1401	-1.1430	-1.4139	0.8395	
-0.0667	 4.80712672086684E-0003	-2.3933	-0.3364	0.4049	-2.3933	0.1172	-0.4385	-2.1387	-0.2934	-0.3533	-2.0890	-0.5072	0.9697	-0.5693	-1.3391	-1.5062	-0.1842	0.6613	-0.3579	-0.4917	-0.2958	-0.6112	0.8292	0.9367	-0.9689	-1.2774	0.5126	-0.4050	0.4426	-2.3649	0.1009	-0.4858	-2.1703	-0.3356	-0.3620	-2.0077	-0.4562	0.8926	-0.6245	-1.2044	-1.3800	-0.2601	0.5805	-0.2548	-0.3667	-0.3328	-0.6770	0.8407	0.9777	-0.9553	-1.2983	0.4182	
-0.0333	 3.54530081450380E-0003	-2.2005	-0.7641	0.5668	-2.2005	-0.1543	-0.7932	-2.3035	-0.2812	-0.2272	-1.9959	-0.5408	0.8204	-0.6131	-0.9375	-1.0557	-0.2870	0.4755	-0.2544	-0.2691	-0.2306	-0.6627	0.5900	0.7763	-0.7773	-1.1636	0.0725	-0.8242	0.5998	-2.1750	-0.1685	-0.8344	-2.3309	-0.3166	-0.2339	-1.9262	-0.4976	0.7542	-0.6596	-0.8219	-0.9471	-0.3517	0.4063	-0.1661	-0.1617	-0.2616	-0.7187	0.5992	0.8111	-0.7647	-1.1805	-0.0097	
0.0000	 2.45178719415847E-0003	-2.0059	-1.1944	0.7293	-2.0059	-0.4266	-1.1486	-2.4681	-0.2686	-0.1006	-1.9024	-0.5746	0.6700	-0.6568	-0.5336	-0.6018	-0.3900	0.2888	-0.1521	-0.0465	-0.1640	-0.7137	0.3475	0.6133	-0.5842	-1.0481	-0.3717	-1.2449	0.7577	-1.9839	-0.4395	-1.1838	-2.4911	-0.2975	-0.1054	-1.8449	-0.5395	0.6154	-0.6947	-0.4377	-0.5118	-0.4434	0.2315	-0.0780	0.0428	-0.1894	-0.7596	0.3552	0.6425	-0.5725	-1.0617	-0.4412	
0.0333	 1.57879511389794E-0003	-1.8104	-1.6252	0.8915	-1.8104	-0.7002	-1.5044	-2.6328	-0.2553	0.0267	-1.8097	-0.6093	0.5200	-0.6998	-0.1302	-0.1485	-0.4920	0.1018	-0.0507	0.1754	-0.0966	-0.7640	0.1033	0.4480	-0.3905	-0.9318	-0.8179	-1.6658	0.9154	-1.7920	-0.7108	-1.5330	-2.6511	-0.2778	0.0234	-1.7644	-0.5819	0.4764	-0.7296	-0.0531	-0.0765	-0.5345	0.0563	0.0088	0.2480	-0.1169	-0.8005	0.1101	0.4724	-0.3802	-0.9420	-0.8739	
0.0667	 8.85008236555755E-0004	-1.6145	-2.0552	1.0541	-1.6145	-0.9741	-1.8596	-2.7971	-0.2414	0.1540	-1.7183	-0.6451	0.3702	-0.7424	0.2722	0.3033	-0.5936	-0.0849	0.0490	0.3960	-0.0287	-0.8133	-0.1420	0.2813	-0.1958	-0.8142	-1.2641	-2.0852	1.0729	-1.5998	-0.9823	-1.8815	-2.8110	-0.2576	0.1523	-1.6843	-0.6251	0.3377	-0.7638	0.3296	0.3565	-0.6251	-0.1181	0.0950	0.4505	-0.0437	-0.8403	-0.1367	0.3000	-0.1874	-0.8217	-1.3066	
0.1000	 4.00120865037855E-0004	-1.4193	-2.4800	1.2155	-1.4193	-1.2461	-2.2114	-2.9597	-0.2277	0.2802	-1.6281	-0.6815	0.2213	-0.7844	0.6711	0.7516	-0.6941	-0.2703	0.1471	0.6134	0.0396	-0.8614	-0.3880	0.1135	-0.0023	-0.6970	-1.7074	-2.5013	1.2300	-1.4080	-1.2529	-2.2277	-2.9697	-0.2371	0.2805	-1.6061	-0.6694	0.2002	-0.7972	0.7092	0.7865	-0.7146	-0.2916	0.1782	0.6508	0.0300	-0.8791	-0.3840	0.1269	0.0049	-0.7012	-1.7371	
