Arquivo: c:\arq\medidas\BBA_1704_072055\BBA_AMP03B_V.dat
Data: 1704	 Hora:  0734
Comentário: 
NomeParametro	 ValorParametro
Nmedias	5
PausaCorretora	3000
PausaShunt	2000
PausaLeitura	500
NumCiclos	3
 NPassosCor	7
DeltaShunt	3.00
TetaIni	-0.10
TetaFim	0.10
I[mA]	 144.1
ACV09B	DeltaPos^2	AMP03B	AMP01B_0	AMP02A_0	AMP02B_0	AMP03A_0	AMP03B_0	AMP03C_0	AMP04A_0	AMP04B_0	AMP05A_0	AMP05B_0	AMP06A_0	AMP06B_0	AMP07A_0	AMP07B_0	AMP08A_0	AMP08B_0	AMP09A_0	AMP09B_0	AMP10A_0	AMP10B_0	AMU11A_0	AMU11B_0	AMP12A_0	AMP12B_0	AMP01A_0	AMP01B_1	AMP02A_1	AMP02B_1	AMP03A_1	AMP03B_1	AMP03C_1	AMP04A_1	AMP04B_1	AMP05A_1	AMP05B_1	AMP06A_1	AMP06B_1	AMP07A_1	AMP07B_1	AMP08A_1	AMP08B_1	AMP09A_1	AMP09B_1	AMP10A_1	AMP10B_1	AMU11A_1	AMU11B_1	AMP12A_1	AMP12B_1	AMP01A_1	
-0.1000	 8.19715399205743E-0003	1.3036	0.1084	0.4665	1.0613	1.2669	1.3036	-1.2879	-0.1493	-0.2785	1.2666	1.1701	0.9849	-1.4722	-1.0151	1.1503	1.6826	0.4311	0.3519	-0.8300	-0.0564	0.2620	0.8847	2.0765	1.2512	0.2499	-0.6253	0.2176	0.5596	1.1301	1.3227	1.2007	-1.5112	-0.2420	-0.3259	1.2482	1.2660	1.0245	-1.5269	-1.1290	1.1987	1.7448	0.5205	0.4567	-0.9645	-0.1418	0.2541	0.9258	2.1213	1.2468	0.1659	-0.7547	
-0.0667	 3.92782962962907E-0003	1.5784	-0.0524	0.2843	0.8464	1.0238	1.5784	-0.6838	0.0650	-0.2802	1.1375	1.0799	1.0132	-1.2506	-0.6647	0.8733	1.4534	0.2615	0.2213	-0.5244	0.1613	0.3729	0.8950	1.8871	1.1673	0.3915	-0.3527	0.0233	0.3489	0.8939	1.0628	1.5081	-0.8385	0.0007	-0.3126	1.1247	1.1465	1.0403	-1.2883	-0.7436	0.9071	1.4968	0.3233	0.2938	-0.6176	0.1023	0.3674	0.9236	1.9183	1.1646	0.3332	-0.4421	
-0.0333	 1.14486833834691E-0003	1.8585	-0.2168	0.0985	0.6269	0.7744	1.8585	-0.0663	0.2838	-0.2812	1.0063	0.9869	1.0410	-1.0250	-0.3073	0.5912	1.2198	0.0882	0.0877	-0.2123	0.3840	0.4858	0.9054	1.6935	1.0816	0.5355	-0.0748	-0.1759	0.1334	0.6526	0.7958	1.8207	-0.1498	0.2490	-0.2987	0.9997	1.0230	1.0559	-1.0452	-0.3493	0.6093	1.2435	0.1219	0.1272	-0.2624	0.3521	0.4832	0.9210	1.7111	1.0807	0.5044	-0.1230	
0.0000	 1.81841852017313E-0005	2.1404	-0.3837	-0.0898	0.4048	0.5221	2.1404	0.5565	0.5050	-0.2817	0.8746	0.8922	1.0684	-0.7968	0.0534	0.3069	0.9839	-0.0872	-0.0486	0.1034	0.6090	0.6003	0.9154	1.4973	0.9952	0.6813	0.2063	-0.3781	-0.0850	0.4083	0.5251	2.1362	0.5462	0.5010	-0.2838	0.8740	0.8969	1.0708	-0.7990	0.0489	0.3088	0.9865	-0.0825	-0.0431	0.0974	0.6048	0.5999	0.9177	1.5003	0.9957	0.6776	0.2002	
0.0333	 6.66041035581555E-0004	2.4230	-0.5527	-0.2795	0.1811	0.2672	2.4230	1.1830	0.7279	-0.2814	0.7428	0.7958	1.0955	-0.5671	0.4164	0.0203	0.7455	-0.2645	-0.1864	0.4219	0.8359	0.7156	0.9255	1.2995	0.9082	0.8280	0.4902	-0.5834	-0.3058	0.1614	0.2515	2.4529	1.2469	0.7548	-0.2677	0.7485	0.7685	1.0850	-0.5507	0.4498	0.0060	0.7276	-0.2895	-0.2149	0.4602	0.8603	0.7174	0.9143	1.2877	0.9100	0.8520	0.5270	
0.0667	 3.08816229062866E-0003	2.7044	-0.7217	-0.4694	-0.0441	0.0118	2.7044	1.8067	0.9515	-0.2800	0.6120	0.6981	1.1223	-0.3371	0.7792	-0.2665	0.5072	-0.4418	-0.3245	0.7402	1.0629	0.8312	0.9356	1.1004	0.8204	0.9753	0.7745	-0.7879	-0.5262	-0.0864	-0.0230	2.7673	1.9435	1.0092	-0.2503	0.6240	0.6389	1.0982	-0.3028	0.8501	-0.2965	0.4692	-0.4961	-0.3877	0.8235	1.1155	0.8362	0.9113	1.0737	0.8239	1.0269	0.8538	
0.1000	 7.19252605800389E-0003	2.9849	-0.8903	-0.6596	-0.2693	-0.2446	2.9849	2.4263	1.1753	-0.2777	0.4816	0.5997	1.1476	-0.1075	1.1416	-0.5527	0.2689	-0.6193	-0.4628	1.0586	1.2902	0.9476	0.9468	0.9002	0.7326	1.1223	1.0590	-0.9920	-0.7462	-0.3343	-0.2976	3.0804	2.6326	1.2631	-0.2323	0.5008	0.5081	1.1104	-0.0554	1.2504	-0.5982	0.2101	-0.7025	-0.5603	1.1857	1.3708	0.9556	0.9095	0.8584	0.7370	1.2012	1.1805	
