Arquivo: c:\arq\medidas\BBA_1004_064227\BBA_AMP08A_V.dat
Data: 1004	 Hora:  0727
Comentário: 
NomeParametro	 ValorParametro
Nmedias	5
PausaCorretora	3000
PausaShunt	2000
PausaLeitura	500
NumCiclos	3
 NPassosCor	7
DeltaShunt	3.00
TetaIni	-0.10
TetaFim	0.10
I[mA]	  41.5
ACV03B	DeltaPos^2	AMP08A	AMP01B_0	AMP02A_0	AMP02B_0	AMP03A_0	AMP03B_0	AMP03C_0	AMP04A_0	AMP04B_0	AMP05A_0	AMP05B_0	AMP06A_0	AMP06B_0	AMP07A_0	AMP07B_0	AMP08A_0	AMP08B_0	AMP09A_0	AMP09B_0	AMP10A_0	AMP10B_0	AMU11A_0	AMU11B_0	AMP12A_0	AMP12B_0	AMP01A_0	AMP01B_1	AMP02A_1	AMP02B_1	AMP03A_1	AMP03B_1	AMP03C_1	AMP04A_1	AMP04B_1	AMP05A_1	AMP05B_1	AMP06A_1	AMP06B_1	AMP07A_1	AMP07B_1	AMP08A_1	AMP08B_1	AMP09A_1	AMP09B_1	AMP10A_1	AMP10B_1	AMU11A_1	AMU11B_1	AMP12A_1	AMP12B_1	AMP01A_1	
-0.1000	 6.38580987515891E-0004	1.4381	0.4252	0.6081	0.9207	0.9398	1.3652	-1.0910	-0.1713	-0.6171	0.7633	1.5982	1.3619	-1.1863	-0.7582	0.6470	1.4381	0.5774	0.7397	-0.8990	-0.0317	0.5347	1.2175	1.8339	0.9730	0.0552	-0.7588	0.4622	0.6350	0.9321	0.9419	1.3435	-1.1305	-0.1795	-0.5974	0.7993	1.5794	1.3403	-1.2131	-0.7895	0.6882	1.4634	0.5984	0.7594	-0.9358	-0.0512	0.5424	1.2389	1.8365	0.9627	0.0289	-0.7937	
-0.0667	 3.96293113623131E-0004	1.3030	0.1870	0.4011	0.7602	0.8015	1.6037	-0.5818	0.0385	-0.5119	0.8043	1.3850	1.2746	-1.0680	-0.5052	0.5482	1.3030	0.3748	0.4967	-0.5941	0.1645	0.5610	1.1355	1.7247	0.9744	0.2411	-0.4668	0.2155	0.4222	0.7691	0.8034	1.5870	-0.6133	0.0318	-0.4962	0.8326	1.3702	1.2574	-1.0889	-0.5299	0.5810	1.3230	0.3915	0.5123	-0.6231	0.1492	0.5669	1.1524	1.7270	0.9664	0.2205	-0.4942	
-0.0333	 2.07116197075024E-0004	1.1672	-0.0517	0.1932	0.5989	0.6621	1.8434	-0.0695	0.2495	-0.4060	0.8456	1.1700	1.1862	-0.9485	-0.2516	0.4493	1.1672	0.1710	0.2523	-0.2872	0.3615	0.5881	1.0533	1.6147	0.9754	0.4275	-0.1742	-0.0310	0.2085	0.6056	0.6636	1.8311	-0.0923	0.2451	-0.3951	0.8661	1.1591	1.1738	-0.9638	-0.2695	0.4726	1.1818	0.1830	0.2638	-0.3084	0.3505	0.5921	1.0655	1.6166	0.9699	0.4127	-0.1941	
0.0000	 7.91409740862547E-0005	1.0301	-0.2930	-0.0172	0.4363	0.5209	2.0837	0.4460	0.4623	-0.2992	0.8875	0.9521	1.0969	-0.8284	0.0045	0.3493	1.0301	-0.0349	0.0054	0.0217	0.5602	0.6153	0.9707	1.5033	0.9761	0.6150	0.1205	-0.2801	-0.0076	0.4405	0.5217	2.0763	0.4323	0.4594	-0.2923	0.9003	0.9458	1.0894	-0.8377	-0.0065	0.3640	1.0392	-0.0274	0.0123	0.0088	0.5533	0.6184	0.9784	1.5046	0.9725	0.6063	0.1080	
0.0333	 1.06083491031525E-0005	0.8901	-0.5397	-0.2314	0.2699	0.3763	2.3285	0.9720	0.6795	-0.1893	0.9314	0.7297	1.0053	-0.7057	0.2653	0.2477	0.8901	-0.2455	-0.2472	0.3382	0.7639	0.6443	0.8868	1.3889	0.9764	0.8063	0.4218	-0.5352	-0.2279	0.2713	0.3765	2.3261	0.9669	0.6786	-0.1869	0.9361	0.7270	1.0025	-0.7091	0.2616	0.2530	0.8934	-0.2426	-0.2444	0.3335	0.7610	0.6450	0.8898	1.3896	0.9752	0.8031	0.4171	
0.0667	 6.13885347192717E-0006	0.7485	-0.7893	-0.4479	0.1016	0.2300	2.5746	1.5020	0.8994	-0.0779	0.9764	0.5040	0.9124	-0.5820	0.5289	0.1454	0.7485	-0.4584	-0.5030	0.6578	0.9693	0.6739	0.8022	1.2726	0.9763	0.9993	0.7262	-0.7930	-0.4506	0.1003	0.2296	2.5771	1.5060	0.9006	-0.0796	0.9733	0.5053	0.9142	-0.5792	0.5326	0.1413	0.7462	-0.4603	-0.5047	0.6611	0.9710	0.6728	0.8006	1.2731	0.9774	1.0022	0.7298	
0.1000	 6.39578835171483E-0005	0.6065	-1.0401	-0.6661	-0.0689	0.0824	2.8214	2.0325	1.1209	0.0353	1.0232	0.2747	0.8173	-0.4578	0.7942	0.0425	0.6065	-0.6728	-0.7612	0.9797	1.1770	0.7041	0.7176	1.1545	0.9755	1.1937	1.0335	-1.0518	-0.6747	-0.0724	0.0815	2.8287	2.0449	1.1240	0.0295	1.0123	0.2802	0.8240	-0.4492	0.8047	0.0295	0.5987	-0.6792	-0.7675	0.9915	1.1832	0.7015	0.7114	1.1543	0.9792	1.2023	1.0446	
