Arquivo: c:\arq\medidas\BBA_0304_072142\BBA_AMP03B_V.dat
Data: 0304	 Hora:  0735
Comentário: 
NomeParametro	 ValorParametro
Nmedias	5
PausaCorretora	3000
PausaShunt	2000
PausaLeitura	500
NumCiclos	3
 NPassosCor	7
DeltaShunt	3.00
TetaIni	-0.10
TetaFim	0.10
I[mA]	 146.8
ACV09B	DeltaPos^2	AMP03B	AMP01B_0	AMP02A_0	AMP02B_0	AMP03A_0	AMP03B_0	AMP03C_0	AMP04A_0	AMP04B_0	AMP05A_0	AMP05B_0	AMP06A_0	AMP06B_0	AMP07A_0	AMP07B_0	AMP08A_0	AMP08B_0	AMP09A_0	AMP09B_0	AMP10A_0	AMP10B_0	AMU11A_0	AMU11B_0	AMP12A_0	AMP12B_0	AMP01A_0	AMP01B_1	AMP02A_1	AMP02B_1	AMP03A_1	AMP03B_1	AMP03C_1	AMP04A_1	AMP04B_1	AMP05A_1	AMP05B_1	AMP06A_1	AMP06B_1	AMP07A_1	AMP07B_1	AMP08A_1	AMP08B_1	AMP09A_1	AMP09B_1	AMP10A_1	AMP10B_1	AMU11A_1	AMU11B_1	AMP12A_1	AMP12B_1	AMP01A_1	
-0.1000	 8.69750547496485E-0003	1.2745	0.1043	0.4659	1.0656	1.2748	1.2745	-1.2992	-0.1546	-0.2794	1.2680	1.1729	0.9847	-1.4777	-1.0240	1.1564	1.6888	0.4343	0.3533	-0.8368	-0.0607	0.2599	0.8845	2.0761	1.2505	0.2508	-0.6239	0.2170	0.5620	1.1364	1.3325	1.1679	-1.5295	-0.2498	-0.3267	1.2508	1.2706	1.0240	-1.5348	-1.1422	1.2076	1.7536	0.5262	0.4604	-0.9751	-0.1482	0.2525	0.9276	2.1209	1.2456	0.1641	-0.7574	
-0.0667	 4.21978034339515E-0003	1.5523	-0.0584	0.2819	0.8489	1.0304	1.5523	-0.6905	0.0612	-0.2825	1.1355	1.0837	1.0143	-1.2533	-0.6701	0.8760	1.4567	0.2639	0.2227	-0.5287	0.1585	0.3691	0.8926	1.8877	1.1684	0.3943	-0.3494	0.0199	0.3490	0.8985	1.0710	1.4786	-0.8511	-0.0051	-0.3151	1.1238	1.1516	1.0418	-1.2928	-0.7523	0.9121	1.5021	0.3280	0.2977	-0.6251	0.0975	0.3641	0.9225	1.9191	1.1654	0.3340	-0.4419	
-0.0333	 1.25175256602109E-0003	1.8349	-0.2250	0.0943	0.6282	0.7802	1.8349	-0.0685	0.2813	-0.2850	1.0013	0.9920	1.0441	-1.0248	-0.3095	0.5907	1.2205	0.0895	0.0889	-0.2142	0.3818	0.4806	0.9002	1.6947	1.0847	0.5406	-0.0695	-0.1822	0.1308	0.6552	0.8025	1.7952	-0.1559	0.2452	-0.3027	0.9952	1.0291	1.0591	-1.0463	-0.3539	0.6100	1.2455	0.1246	0.1301	-0.2666	0.3485	0.4777	0.9166	1.7126	1.0832	0.5077	-0.1200	
0.0000	 2.55522394715981E-0005	2.1200	-0.3947	-0.0965	0.4043	0.5264	2.1200	0.5597	0.5039	-0.2869	0.8663	0.8986	1.0736	-0.7934	0.0552	0.3019	0.9812	-0.0878	-0.0479	0.1046	0.6081	0.5935	0.9079	1.4994	1.0000	0.6888	0.2140	-0.3881	-0.0911	0.4083	0.5299	2.1147	0.5477	0.4990	-0.2893	0.8658	0.9039	1.0760	-0.7960	0.0496	0.3048	0.9846	-0.0823	-0.0409	0.0974	0.6033	0.5931	0.9103	1.5027	1.0005	0.6841	0.2070	
0.0333	 6.48872646178378E-0004	2.4057	-0.5662	-0.2884	0.1789	0.2706	2.4057	1.1918	0.7285	-0.2882	0.7312	0.8031	1.1030	-0.5606	0.4217	0.0118	0.7402	-0.2663	-0.1858	0.4256	0.8362	0.7075	0.9153	1.3021	0.9147	0.8378	0.5005	-0.5961	-0.3143	0.1595	0.2548	2.4354	1.2549	0.7551	-0.2749	0.7364	0.7767	1.0920	-0.5444	0.4548	-0.0022	0.7224	-0.2909	-0.2140	0.4641	0.8598	0.7094	0.9042	1.2906	0.9166	0.8614	0.5367	
0.0667	 3.13671904704069E-0003	2.6904	-0.7377	-0.4807	-0.0482	0.0137	2.6904	1.8210	0.9539	-0.2884	0.5968	0.7066	1.1310	-0.3277	0.7885	-0.2787	0.4987	-0.4451	-0.3247	0.7475	1.0646	0.8220	0.9229	1.1039	0.8288	0.9873	0.7875	-0.8045	-0.5382	-0.0908	-0.0213	2.7540	1.9588	1.0116	-0.2593	0.6080	0.6476	1.1076	-0.2926	0.8610	-0.3097	0.4596	-0.4997	-0.3879	0.8317	1.1172	0.8265	0.8977	1.0775	0.8325	1.0394	0.8672	
0.1000	 7.41829949283470E-0003	2.9741	-0.9090	-0.6731	-0.2749	-0.2432	2.9741	2.4456	1.1792	-0.2878	0.4633	0.6090	1.1583	-0.0952	1.1554	-0.5690	0.2577	-0.6240	-0.4638	1.0696	1.2938	0.9373	0.9311	0.9049	0.7428	1.1365	1.0747	-1.0124	-0.7615	-0.3411	-0.2977	3.0713	2.6556	1.2685	-0.2427	0.4809	0.5177	1.1220	-0.0413	1.2665	-0.6164	0.1969	-0.7086	-0.5617	1.1985	1.3744	0.9446	0.8923	0.8627	0.7480	1.2171	1.1978	
