Arquivo: c:\arq\medidas\BBA_0304_072142\BBA_AMP10A_H.dat
Data: 0304	 Hora:  0817
Comentário: 
NomeParametro	 ValorParametro
Nmedias	5
PausaCorretora	3000
PausaShunt	2000
PausaLeitura	500
NumCiclos	3
 NPassosCor	7
DeltaShunt	3.00
TetaIni	-0.10
TetaFim	0.10
I[mA]	  35.6
ACH03A	DeltaPos^2	AMP10A	AMP01B_0	AMP02A_0	AMP02B_0	AMP03A_0	AMP03B_0	AMP03C_0	AMP04A_0	AMP04B_0	AMP05A_0	AMP05B_0	AMP06A_0	AMP06B_0	AMP07A_0	AMP07B_0	AMP08A_0	AMP08B_0	AMP09A_0	AMP09B_0	AMP10A_0	AMP10B_0	AMU11A_0	AMU11B_0	AMP12A_0	AMP12B_0	AMP01A_0	AMP01B_1	AMP02A_1	AMP02B_1	AMP03A_1	AMP03B_1	AMP03C_1	AMP04A_1	AMP04B_1	AMP05A_1	AMP05B_1	AMP06A_1	AMP06B_1	AMP07A_1	AMP07B_1	AMP08A_1	AMP08B_1	AMP09A_1	AMP09B_1	AMP10A_1	AMP10B_1	AMU11A_1	AMU11B_1	AMP12A_1	AMP12B_1	AMP01A_1	
-0.1000	 1.86843155571600E-0004	-0.6475	-0.7804	0.8390	-1.9936	-1.1427	-2.0102	-2.8913	-0.1668	0.1393	-1.7894	-0.7786	0.3708	-0.7584	0.3466	0.0394	-0.9365	-0.1660	0.9855	1.0671	-0.6475	-1.3189	1.2286	1.6446	-0.7809	-1.5089	-0.2716	-0.7790	0.8246	-2.0012	-1.1190	-1.9902	-2.8855	-0.1828	0.1236	-1.7669	-0.7545	0.3586	-0.7733	0.3559	0.0539	-0.9397	-0.1760	0.9736	1.0625	-0.6422	-1.3108	1.2130	1.6232	-0.7863	-1.5071	-0.2642	
-0.0667	 6.86767623633230E-0005	-0.5005	-0.8931	0.7612	-1.9831	-0.8980	-1.7230	-2.7672	-0.2053	0.0269	-1.7894	-0.6897	0.4502	-0.7593	0.1110	-0.1231	-0.7812	-0.0567	0.6462	0.7420	-0.5005	-1.1582	0.9579	1.3260	-0.7276	-1.3838	-0.2903	-0.8949	0.7538	-1.9855	-0.8849	-1.7126	-2.7646	-0.2141	0.0184	-1.7758	-0.6758	0.4427	-0.7677	0.1172	-0.1144	-0.7827	-0.0627	0.6373	0.7379	-0.4963	-1.1527	0.9452	1.3106	-0.7291	-1.3810	-0.2893	
-0.0333	 2.79258454420622E-0005	-0.3526	-1.0072	0.6837	-1.9717	-0.6522	-1.4334	-2.6423	-0.2433	-0.0859	-1.7899	-0.6009	0.5303	-0.7599	-0.1261	-0.2873	-0.6246	0.0534	0.3038	0.4139	-0.3526	-0.9962	0.6838	1.0040	-0.6732	-1.2573	-0.3106	-1.0150	0.6844	-1.9675	-0.6516	-1.4358	-2.6437	-0.2451	-0.0864	-1.7847	-0.5975	0.5271	-0.7612	-0.1227	-0.2844	-0.6240	0.0515	0.2971	0.4105	-0.3483	-0.9923	0.6712	0.9912	-0.6690	-1.2520	-0.3191	
0.0000	 8.04742165971227E-0005	-0.2044	-1.1233	0.6069	-1.9596	-0.4074	-1.1447	-2.5174	-0.2812	-0.1982	-1.7916	-0.5130	0.6105	-0.7601	-0.3637	-0.4521	-0.4683	0.1642	-0.0389	0.0857	-0.2044	-0.8339	0.4083	0.6797	-0.6183	-1.1305	-0.3326	-1.1370	0.6159	-1.9477	-0.4203	-1.1612	-2.5231	-0.2750	-0.1899	-1.7945	-0.5205	0.6117	-0.7543	-0.3614	-0.4540	-0.4654	0.1659	-0.0433	0.0832	-0.1996	-0.8318	0.3949	0.6696	-0.6075	-1.1225	-0.3521	
0.0333	 1.39105095803405E-0004	-0.0554	-1.2409	0.5310	-1.9457	-0.1636	-0.8571	-2.3931	-0.3186	-0.3101	-1.7932	-0.4257	0.6908	-0.7598	-0.6010	-0.6170	-0.3114	0.2749	-0.3819	-0.2435	-0.0554	-0.6710	0.1302	0.3532	-0.5612	-1.0022	-0.3574	-1.2541	0.5450	-1.9318	-0.1864	-0.8813	-2.4011	-0.3062	-0.2957	-1.8058	-0.4434	0.6970	-0.7481	-0.6022	-0.6245	-0.3079	0.2803	-0.3797	-0.2423	-0.0541	-0.6732	0.1262	0.3543	-0.5498	-0.9959	-0.3783	
0.0667	 2.35760391148646E-0004	0.0940	-1.3614	0.4558	-1.9303	0.0782	-0.5710	-2.2690	-0.3553	-0.4208	-1.7956	-0.3398	0.7714	-0.7589	-0.8373	-0.7819	-0.1544	0.3853	-0.7255	-0.5721	0.0940	-0.5080	-0.1496	0.0250	-0.5034	-0.8728	-0.3850	-1.3717	0.4740	-1.9165	0.0491	-0.5991	-2.2776	-0.3369	-0.4016	-1.8181	-0.3662	0.7831	-0.7418	-0.8454	-0.7966	-0.1498	0.3949	-0.7176	-0.5691	0.0921	-0.5141	-0.1421	0.0388	-0.4926	-0.8696	-0.4035	
0.1000	 3.82953074448219E-0004	0.2425	-1.4813	0.3810	-1.9157	0.3199	-0.2846	-2.1446	-0.3919	-0.5322	-1.7988	-0.2543	0.8521	-0.7580	-1.0738	-0.9469	0.0017	0.4960	-1.0679	-0.9002	0.2425	-0.3459	-0.4285	-0.3021	-0.4459	-0.7443	-0.4125	-1.4890	0.4028	-1.9015	0.2853	-0.3158	-2.1538	-0.3681	-0.5083	-1.8303	-0.2888	0.8688	-0.7358	-1.0883	-0.9687	0.0072	0.5094	-1.0552	-0.8963	0.2370	-0.3560	-0.4111	-0.2775	-0.4356	-0.7442	-0.4286	
