Arquivo: c:\arq\medidas\BBA_0603_073413\BBA_AMP05B_V.dat
Data: 0603	 Hora:  0807
Comentário: 
NomeParametro	 ValorParametro
Nmedias	5
PausaCorretora	3000
PausaShunt	2000
PausaLeitura	500
NumCiclos	3
 NPassosCor	9
DeltaShunt	1.50
TetaIni	-0.20
TetaFim	0.20
I[mA]	 121.1
ACV11B	DeltaPos^2	AMP05B	AMP01B_0	AMP02A_0	AMP02B_0	AMP03A_0	AMP03B_0	AMP04A_0	AMP04B_0	AMP05A_0	AMP05B_0	AMP06A_0	AMP06B_0	AMP07A_0	AMP07B_0	AMP08A_0	AMP08B_0	AMP09A_0	AMP09B_0	AMP10A_0	AMP10B_0	AMP11A_0	AMU11A_0	AMU11B_0	AMP11B_0	AMP12A_0	AMP12B_0	AMP01A_0	AMP01B_1	AMP02A_1	AMP02B_1	AMP03A_1	AMP03B_1	AMP04A_1	AMP04B_1	AMP05A_1	AMP05B_1	AMP06A_1	AMP06B_1	AMP07A_1	AMP07B_1	AMP08A_1	AMP08B_1	AMP09A_1	AMP09B_1	AMP10A_1	AMP10B_1	AMP11A_1	AMU11A_1	AMU11B_1	AMP11B_1	AMP12A_1	AMP12B_1	AMP01A_1	
-0.2000	 2.98238722014730E-0003	-1.1547	1.3350	0.6890	-0.3023	-1.1522	2.4105	1.3783	1.1563	2.6092	-1.1547	-0.3571	-1.1832	0.2928	1.3871	1.2178	-1.1717	-1.9298	1.3297	1.8001	1.7767	-0.0890	1.6897	-0.0097	1.7944	-0.4117	-0.3933	-0.5697	1.3687	0.6883	-0.3592	-1.2470	2.4618	1.4399	1.2047	2.6478	-1.2380	-0.4256	-1.2290	0.2589	1.4715	1.2582	-1.1999	-1.9989	1.3457	1.8347	1.8427	-0.0993	1.7508	-0.0820	1.9293	-0.4715	-0.4080	-0.5551	
-0.1500	 1.79446059495632E-0003	-0.6806	0.9529	0.5198	-0.1341	-0.7641	2.3354	1.1705	0.8283	2.2221	-0.6806	-0.0305	-1.1061	0.2200	1.1531	1.1768	-0.9095	-1.4859	1.0311	1.5191	1.5136	-0.0936	1.5260	0.3428	1.4753	-0.0898	-0.1552	-0.4042	0.9798	0.5194	-0.1781	-0.8377	2.3746	1.2188	0.8657	2.2521	-0.7456	-0.0832	-1.1414	0.1942	1.2181	1.2075	-0.9314	-1.5400	1.0444	1.5464	1.5645	-0.0614	1.5733	0.2869	1.5796	-0.1366	-0.1673	-0.3932	
-0.1000	 8.59894790920550E-0004	-0.1910	0.5582	0.3458	0.0391	-0.3632	2.2574	0.9567	0.4896	1.8202	-0.1910	0.3060	-1.0251	0.1469	0.9099	1.1336	-0.6391	-1.0271	0.7247	1.2297	1.2406	-0.0883	1.3553	0.7061	1.1460	0.2420	0.0898	-0.2335	0.5774	0.3456	0.0087	-0.4140	2.2844	0.9896	0.5158	1.8415	-0.2362	0.2696	-1.0496	0.1290	0.9548	1.1544	-0.6546	-1.0646	0.7338	1.2484	1.2759	-0.0839	1.3883	0.6675	1.2179	0.2094	0.0812	-0.2264	
-0.0500	 2.43238480467983E-0004	0.3055	0.1586	0.1688	0.2148	0.0437	2.1785	0.7392	0.1455	1.4105	0.3055	0.6472	-0.9419	0.0737	0.6614	1.0886	-0.3659	-0.5603	0.4151	0.9359	0.9621	-0.0832	1.1814	1.0728	0.8115	0.5781	0.3384	-0.0609	0.1692	0.1690	0.1989	0.0169	2.1930	0.7567	0.1594	1.4220	0.2815	0.6277	-0.9551	0.0641	0.6857	1.0997	-0.3740	-0.5803	0.4197	0.9457	0.9811	-0.0749	1.1987	1.0525	0.8492	0.5612	0.3334	-0.0576	
0.0000	 2.63262539531962E-0006	0.8056	-0.2449	-0.0102	0.3919	0.4549	2.0985	0.5196	-0.2025	0.9956	0.8056	0.9921	-0.8578	0.0009	0.4105	1.0428	-0.0900	-0.0887	0.1028	0.6388	0.6802	-0.0926	1.0060	1.4427	0.4728	0.9173	0.5899	0.1122	-0.2436	-0.0100	0.3902	0.4521	2.1001	0.5213	-0.2009	0.9970	0.8031	0.9899	-0.8591	0.0000	0.4129	1.0437	-0.0910	-0.0909	0.1033	0.6398	0.6821	-0.0678	1.0075	1.4406	0.4767	0.9158	0.5891	0.1122	
0.0500	 1.51470991371909E-0004	1.3064	-0.6513	-0.1900	0.5687	0.8658	2.0187	0.3000	-0.5510	0.5793	1.3064	1.3370	-0.7727	-0.0716	0.1581	0.9958	0.1866	0.3839	-0.2102	0.3413	0.3979	-0.0877	0.8292	1.8125	0.1353	1.2562	0.8418	0.2874	-0.6592	-0.1900	0.5814	0.8870	2.0073	0.2862	-0.5620	0.5703	1.3251	1.3522	-0.7623	-0.0638	0.1393	0.9869	0.1929	0.3994	-0.2140	0.3333	0.3830	-0.0730	0.8151	1.8288	0.1044	1.2698	0.8453	0.2839	
0.1000	 6.98501368167342E-0004	1.8104	-1.0614	-0.3720	0.7468	1.2793	1.9385	0.0788	-0.9020	0.1570	1.8104	1.6846	-0.6870	-0.1451	-0.0967	0.9493	0.4652	0.8602	-0.5271	0.0412	0.1143	-0.0740	0.6514	2.1834	-0.2050	1.5965	1.0962	0.4649	-1.0783	-0.3719	0.7740	1.3248	1.9141	0.0488	-0.9257	0.1380	1.8505	1.7168	-0.6645	-0.1286	-0.1376	0.9299	0.4790	0.8941	-0.5351	0.0243	0.0815	-0.0846	0.6214	2.2181	-0.2708	1.6248	1.1038	0.4580	
0.1500	 1.63291950025252E-0003	2.3246	-1.4820	-0.5595	0.9296	1.7005	1.8567	-0.1480	-1.2622	-0.2773	2.3246	2.0397	-0.5993	-0.2209	-0.3577	0.9018	0.7514	1.3493	-0.8529	-0.2675	-0.1770	-0.0889	0.4701	2.5617	-0.5538	1.9431	1.3575	0.6485	-1.5080	-0.5594	0.9712	1.7700	1.8190	-0.1943	-1.2981	-0.3067	2.3852	2.0898	-0.5649	-0.1953	-0.4208	0.8727	0.7722	1.4007	-0.8652	-0.2936	-0.2264	-0.0862	0.4240	2.6140	-0.6540	1.9870	1.3694	0.6382	
0.2000	 2.91069302868168E-0003	2.8332	-1.9011	-0.7474	1.1104	2.1190	1.7771	-0.3733	-1.6209	-0.7102	2.8332	2.3931	-0.5119	-0.2976	-0.6177	0.8548	1.0370	1.8353	-1.1786	-0.5761	-0.4657	-0.0630	0.2916	2.9352	-0.8982	2.2856	1.6188	0.8335	-1.9359	-0.7471	1.1662	2.2119	1.7261	-0.4350	-1.6685	-0.7492	2.9145	2.4597	-0.4662	-0.2633	-0.7024	0.8153	1.0650	1.9039	-1.1953	-0.6108	-0.5314	-0.0796	0.2300	3.0045	-1.0330	2.3433	1.6346	0.8197	
