Arquivo: c:\arq\medidas\BBA_0603_073413\BBA_AMP01B_V.dat
Data: 0603	 Hora:  0736
Comentário: 
NomeParametro	 ValorParametro
Nmedias	5
PausaCorretora	3000
PausaShunt	2000
PausaLeitura	500
NumCiclos	3
 NPassosCor	9
DeltaShunt	1.50
TetaIni	-0.20
TetaFim	0.20
I[mA]	 123.8
ACV11A	DeltaPos^2	AMP01B	AMP01B_0	AMP02A_0	AMP02B_0	AMP03A_0	AMP03B_0	AMP04A_0	AMP04B_0	AMP05A_0	AMP05B_0	AMP06A_0	AMP06B_0	AMP07A_0	AMP07B_0	AMP08A_0	AMP08B_0	AMP09A_0	AMP09B_0	AMP10A_0	AMP10B_0	AMP11A_0	AMU11A_0	AMU11B_0	AMP11B_0	AMP12A_0	AMP12B_0	AMP01A_0	AMP01B_1	AMP02A_1	AMP02B_1	AMP03A_1	AMP03B_1	AMP04A_1	AMP04B_1	AMP05A_1	AMP05B_1	AMP06A_1	AMP06B_1	AMP07A_1	AMP07B_1	AMP08A_1	AMP08B_1	AMP09A_1	AMP09B_1	AMP10A_1	AMP10B_1	AMP11A_1	AMU11A_1	AMU11B_1	AMP11B_1	AMP12A_1	AMP12B_1	AMP01A_1	
-0.2000	 3.57319613784596E-0003	-2.4736	-2.4736	-1.3814	0.3886	1.3022	2.6827	0.3288	-1.6712	-1.2051	2.6064	2.5212	0.2122	0.8217	-1.5359	0.1055	0.5083	1.4463	-0.2378	-0.1317	-0.8184	-0.0919	-0.6662	2.0464	1.1180	2.0275	2.1124	1.7829	-2.5602	-1.4502	0.3450	1.2727	2.7522	0.3674	-1.7084	-1.2867	2.6342	2.5654	0.2838	0.9121	-1.6403	0.0360	0.4911	1.4615	-0.1861	-0.1227	-0.8781	-0.0768	-0.7460	2.0932	1.2562	2.0864	2.1693	1.8328	
-0.1500	 2.18016242881614E-0003	-1.9755	-1.9755	-1.0740	0.3861	1.1053	2.5512	0.3741	-1.3381	-0.7082	2.1963	2.1746	-0.0258	0.6432	-1.0995	0.3123	0.3622	1.0860	-0.1514	0.0495	-0.4752	-0.1177	-0.2858	1.9123	0.9768	1.7793	1.7719	1.4082	-2.0435	-1.1277	0.3528	1.0836	2.6045	0.4032	-1.3681	-0.7724	2.2185	2.2096	0.0301	0.7139	-1.1810	0.2579	0.3488	1.0980	-0.1113	0.0564	-0.5219	-0.0769	-0.3480	1.9493	1.0828	1.8262	1.8158	1.4477	
-0.1000	 1.02335093418142E-0003	-1.4610	-1.4610	-0.7578	0.3842	0.9035	2.4143	0.4199	-0.9959	-0.1966	1.7733	1.8176	-0.2717	0.4584	-0.6483	0.5259	0.2144	0.7169	-0.0656	0.2339	-0.1233	-0.0925	0.1059	1.7730	0.8300	1.5227	1.4200	1.0234	-1.5077	-0.7944	0.3615	0.8884	2.4516	0.4395	-1.0166	-0.2404	1.7893	1.8416	-0.2337	0.5067	-0.7044	0.4889	0.2053	0.7252	-0.0381	0.2385	-0.1552	-0.0905	0.0636	1.7985	0.9022	1.5542	1.4506	1.0503	
-0.0500	 2.66814195426045E-0004	-0.9374	-0.9374	-0.4362	0.3829	0.6996	2.2741	0.4653	-0.6484	0.3230	1.3439	1.4539	-0.5231	0.2686	-0.1881	0.7448	0.0660	0.3450	0.0176	0.4189	0.2347	-0.1040	0.5045	1.6304	0.6791	1.2594	1.0628	0.6315	-0.9610	-0.4547	0.3712	0.6920	2.2932	0.4756	-0.6591	0.3007	1.3517	1.4663	-0.5035	0.2929	-0.2168	0.7260	0.0614	0.3490	0.0316	0.4210	0.2182	-0.1014	0.4830	1.6438	0.7162	1.2762	1.0781	0.6451	
0.0000	 1.00303143764465E-0007	-0.4050	-0.4050	-0.1103	0.3823	0.4937	2.1317	0.5108	-0.2967	0.8469	0.9089	1.0857	-0.7781	0.0742	0.2778	0.9672	-0.0824	-0.0307	0.0997	0.6047	0.5967	-0.0796	0.9085	1.4848	0.5255	0.9910	0.6991	0.2352	-0.4047	-0.1101	0.3825	0.4936	2.1318	0.5107	-0.2968	0.8469	0.9091	1.0857	-0.7779	0.0741	0.2773	0.9672	-0.0822	-0.0303	0.0995	0.6044	0.5966	-0.0852	0.9083	1.4857	0.5250	0.9917	0.6992	0.2349	
0.0500	 2.62936652526064E-0004	0.1284	0.1284	0.2181	0.3826	0.2880	1.9866	0.5555	0.0565	1.3730	0.4725	0.7149	-1.0347	-0.1226	0.7467	1.1910	-0.2306	-0.4068	0.1795	0.7901	0.9608	-0.0883	1.3130	1.3384	0.3685	0.7207	0.3331	-0.1628	0.1526	0.2368	0.3940	0.2960	1.9678	0.5450	0.0667	1.3949	0.4649	0.7027	-1.0541	-0.1474	0.7751	1.2096	-0.2255	-0.4096	0.1650	0.7873	0.9769	-0.0952	1.3338	1.3268	0.3311	0.7051	0.3173	-0.1775	
0.1000	 1.04666841168121E-0003	0.6678	0.6678	0.5492	0.3839	0.0816	1.8383	0.6000	0.4129	1.9022	0.0302	0.3401	-1.2941	-0.3221	1.2199	1.4174	-0.3796	-0.7859	0.2592	0.9777	1.3289	-0.0969	1.7216	1.1912	0.2071	0.4472	-0.0376	-0.5677	0.7158	0.5864	0.4070	0.0970	1.8005	0.5793	0.4333	1.9461	0.0149	0.3160	-1.3326	-0.3713	1.2765	1.4547	-0.3697	-0.7932	0.2310	0.9720	1.3611	-0.0868	1.7641	1.1671	0.1326	0.4157	-0.0685	-0.5960	
0.1500	 2.33502848926600E-0003	1.2215	1.2215	0.8900	0.3859	-0.1310	1.6851	0.6452	0.7785	2.4424	-0.4241	-0.0449	-1.5602	-0.5269	1.7042	1.6488	-0.5330	-1.1755	0.3417	1.1699	1.7051	-0.0910	2.1400	1.0400	0.0402	0.1660	-0.4182	-0.9834	1.2927	0.9458	0.4210	-0.1074	1.6276	0.6141	0.8083	2.5071	-0.4468	-0.0812	-1.6177	-0.6008	1.7882	1.7051	-0.5182	-1.1860	0.2992	1.1615	1.7518	-0.0981	2.2032	1.0033	-0.0721	0.1187	-0.4647	-1.0253	
0.2000	 4.04399479408959E-0003	1.7716	1.7716	1.2298	0.3882	-0.3418	1.5309	0.6904	1.1422	2.9750	-0.8766	-0.4293	-1.8239	-0.7290	2.1830	1.8785	-0.6870	-1.5640	0.4254	1.3616	2.0788	-0.0824	2.5542	0.8904	-0.1276	-0.1136	-0.7980	-1.3977	1.8644	1.3035	0.4350	-0.3097	1.4549	0.6487	1.1818	3.0600	-0.9059	-0.4769	-1.8998	-0.8266	2.2935	1.9526	-0.6673	-1.5778	0.3691	1.3505	2.1405	-0.0960	2.6365	0.8418	-0.2771	-0.1762	-0.8586	-1.4522	
