Arquivo: c:\arq\medidas\BBA_0603_073413\BBA_AMP02B_V.dat
Data: 0603	 Hora:  0744
Comentário: 
NomeParametro	 ValorParametro
Nmedias	5
PausaCorretora	3000
PausaShunt	2000
PausaLeitura	500
NumCiclos	3
 NPassosCor	9
DeltaShunt	3.00
TetaIni	-0.20
TetaFim	0.20
I[mA]	 123.1
ACV09B	DeltaPos^2	AMP02B	AMP01B_0	AMP02A_0	AMP02B_0	AMP03A_0	AMP03B_0	AMP04A_0	AMP04B_0	AMP05A_0	AMP05B_0	AMP06A_0	AMP06B_0	AMP07A_0	AMP07B_0	AMP08A_0	AMP08B_0	AMP09A_0	AMP09B_0	AMP10A_0	AMP10B_0	AMP11A_0	AMU11A_0	AMU11B_0	AMP11B_0	AMP12A_0	AMP12B_0	AMP01A_0	AMP01B_1	AMP02A_1	AMP02B_1	AMP03A_1	AMP03B_1	AMP04A_1	AMP04B_1	AMP05A_1	AMP05B_1	AMP06A_1	AMP06B_1	AMP07A_1	AMP07B_1	AMP08A_1	AMP08B_1	AMP09A_1	AMP09B_1	AMP10A_1	AMP10B_1	AMP11A_1	AMU11A_1	AMU11B_1	AMP11B_1	AMP12A_1	AMP12B_1	AMP01A_1	
-0.2000	 1.37800911810661E-0003	1.6435	0.6254	1.0092	1.6435	1.9196	0.4730	-0.7322	-0.1579	1.7986	1.2779	0.7838	-2.1730	-2.0563	2.0717	2.3969	0.8749	0.6208	-1.6858	-0.6485	-0.0026	-0.0923	0.9066	2.5824	-3.0549	1.4169	-0.1890	-1.4304	0.6725	1.0507	1.6804	1.9774	0.4325	-0.7732	-0.1798	1.7879	1.3211	0.8027	-2.1957	-2.1020	2.0881	2.4232	0.9160	0.6688	-1.7451	-0.6870	-0.0088	-0.0948	0.9230	2.6047	-3.1487	1.4162	-0.2267	-1.4895	
-0.1500	 8.60950254102768E-0004	1.3481	0.4142	0.7648	1.3481	1.5751	0.8596	-0.4382	-0.1751	1.5984	1.1722	0.8391	-1.8573	-1.5667	1.6723	2.0732	0.6482	0.4580	-1.2707	-0.3484	0.1587	-0.0853	0.9313	2.3169	-2.2319	1.3009	-0.0008	-1.0621	0.4519	0.7979	1.3773	1.6203	0.8270	-0.4701	-0.1918	1.5906	1.2054	0.8533	-1.8759	-1.6028	1.6859	2.0951	0.6808	0.4951	-1.3176	-0.3786	0.1545	-0.1042	0.9451	2.3341	-2.3074	1.2998	-0.0313	-1.1092	
-0.1000	 4.40599604043518E-0004	1.0434	0.1951	0.5119	1.0434	1.2206	1.2546	-0.1356	-0.1922	1.3935	1.0620	0.8944	-1.5327	-1.0620	1.2608	1.7399	0.4137	0.2880	-0.8406	-0.0390	0.3234	-0.0786	0.9549	2.0432	-1.3753	1.1831	0.1939	-0.6803	0.2223	0.5362	1.0645	1.2529	1.2308	-0.1580	-0.2034	1.3886	1.0852	0.9039	-1.5462	-1.0878	1.2714	1.7561	0.4370	0.3138	-0.8743	-0.0605	0.3209	-0.0706	0.9655	2.0549	-1.4298	1.1813	0.1717	-0.7139	
-0.0500	 1.55299979656283E-0004	0.7319	-0.0298	0.2532	0.7319	0.8598	1.6567	0.1734	-0.2079	1.1858	0.9482	0.9498	-1.2017	-0.5460	0.8416	1.3996	0.1734	0.1132	-0.4001	0.2766	0.4904	-0.0772	0.9777	1.7637	-0.4959	1.0630	0.3934	-0.2900	-0.0128	0.2682	0.7444	0.8789	1.6414	0.1601	-0.2137	1.1846	0.9607	0.9543	-1.2102	-0.5611	0.8487	1.4093	0.1869	0.1272	-0.4199	0.2648	0.4902	-0.0768	0.9852	1.7704	-0.5284	1.0608	0.3796	-0.3102	
0.0000	 1.56101701548921E-0005	0.4157	-0.2592	-0.0101	0.4157	0.4919	2.0624	0.4868	-0.2227	0.9765	0.8311	1.0042	-0.8660	-0.0224	0.4175	1.0543	-0.0714	-0.0662	0.0471	0.5973	0.6597	-0.0664	0.9995	1.4791	0.3977	0.9412	0.5958	0.1063	-0.2529	-0.0046	0.4197	0.4972	2.0569	0.4832	-0.2229	0.9787	0.8327	1.0044	-0.8695	-0.0266	0.4209	1.0575	-0.0676	-0.0644	0.0415	0.5946	0.6609	-0.0964	1.0041	1.4794	0.3882	0.9386	0.5908	0.0995	
0.0500	 3.63651093378286E-0005	0.0963	-0.4917	-0.2756	0.0963	0.1203	2.4692	0.8032	-0.2364	0.7672	0.7111	1.0581	-0.5279	0.5033	-0.0094	0.7053	-0.3183	-0.2481	0.4992	0.9207	0.8297	-0.1060	1.0211	1.1916	1.2959	0.8192	0.7999	0.5063	-0.4963	-0.2797	0.0914	0.1112	2.4732	0.8097	-0.2307	0.7727	0.7014	1.0527	-0.5260	0.5105	-0.0094	0.7027	-0.3249	-0.2588	0.5080	0.9279	0.8334	-0.0630	1.0226	1.1858	1.3102	0.8153	0.8035	0.5138	
0.1000	 2.25771695206459E-0004	-0.2281	-0.7272	-0.5446	-0.2281	-0.2564	2.8773	1.1232	-0.2488	0.5570	0.5883	1.1114	-0.1860	1.0349	-0.4414	0.3520	-0.5683	-0.4330	0.9562	1.2477	1.0028	-0.0859	1.0438	0.8993	2.1975	0.6947	1.0069	0.9121	-0.7427	-0.5585	-0.2418	-0.2796	2.8906	1.1401	-0.2369	0.5663	0.5669	1.1004	-0.1789	1.0536	-0.4453	0.3435	-0.5850	-0.4563	0.9799	1.2650	1.0091	-0.0776	1.0422	0.8874	2.2345	0.6910	1.0194	0.9338	
0.1500	 5.85402869975899E-0004	-0.5587	-0.9665	-0.8186	-0.5587	-0.6412	3.2912	1.4502	-0.2601	0.3446	0.4606	1.1636	0.1615	1.5760	-0.8811	-0.0073	-0.8235	-0.6213	1.4210	1.5809	1.1807	-0.0941	1.0688	0.5993	3.1046	0.5667	1.2176	1.3252	-0.9935	-0.8426	-0.5820	-0.6796	3.3139	1.4773	-0.2420	0.3574	0.4279	1.1478	0.1740	1.6050	-0.8884	-0.0224	-0.8505	-0.6570	1.4597	1.6081	1.1891	-0.0873	1.0642	0.5811	3.1638	0.5621	1.2386	1.3610	
0.2000	 1.11400312857546E-0003	-0.8908	-1.2053	-1.0926	-0.8908	-1.0285	3.7029	1.7787	-0.2692	0.1337	0.3297	1.2142	0.5098	2.1151	-1.3205	-0.3676	-1.0787	-0.8095	1.8851	1.9146	1.3600	-0.0627	1.0961	0.2961	3.9969	0.4360	1.4275	1.7376	-1.2431	-1.1264	-0.9229	-1.0808	3.7344	1.8160	-0.2447	0.1506	0.2851	1.1931	0.5272	2.1550	-1.3308	-0.3888	-1.1162	-0.8580	1.9382	1.9514	1.3708	-0.0942	1.0878	0.2714	4.0775	0.4306	1.4576	1.7881	
