Arquivo: c:\arq\medidas\BBA_0603_073413\BBA_AMP02A_H.dat
Data: 0603	 Hora:  0738
Comentário: 
NomeParametro	 ValorParametro
Nmedias	5
PausaCorretora	3000
PausaShunt	2000
PausaLeitura	500
NumCiclos	3
 NPassosCor	9
DeltaShunt	3.00
TetaIni	-0.20
TetaFim	0.20
I[mA]	 123.6
ACH09B	DeltaPos^2	AMP02A	AMP01B_0	AMP02A_0	AMP02B_0	AMP03A_0	AMP03B_0	AMP04A_0	AMP04B_0	AMP05A_0	AMP05B_0	AMP06A_0	AMP06B_0	AMP07A_0	AMP07B_0	AMP08A_0	AMP08B_0	AMP09A_0	AMP09B_0	AMP10A_0	AMP10B_0	AMP11A_0	AMU11A_0	AMU11B_0	AMP11B_0	AMP12A_0	AMP12B_0	AMP01A_0	AMP01B_1	AMP02A_1	AMP02B_1	AMP03A_1	AMP03B_1	AMP04A_1	AMP04B_1	AMP05A_1	AMP05B_1	AMP06A_1	AMP06B_1	AMP07A_1	AMP07B_1	AMP08A_1	AMP08B_1	AMP09A_1	AMP09B_1	AMP10A_1	AMP10B_1	AMP11A_1	AMU11A_1	AMU11B_1	AMP11B_1	AMP12A_1	AMP12B_1	AMP01A_1	
-0.2000	 6.24518383601378E-0004	-0.5451	0.8477	-0.5451	-2.9793	1.9665	1.4587	-0.8304	-1.2482	-1.2560	0.7484	1.0811	-1.0142	-1.9504	-1.3666	0.7171	0.9024	-2.6852	-2.4236	-0.0191	0.0832	0.0046	0.7944	0.4270	-1.4409	-1.3896	-1.3204	2.0737	0.8455	-0.5368	-2.9702	1.9485	1.4312	-0.8392	-1.2457	-1.2421	0.7491	1.0568	-1.0280	-1.9083	-1.3314	0.6862	0.8747	-2.6398	-2.3755	-0.0418	0.0536	0.0022	0.8176	0.4597	-1.4564	-1.3955	-1.3386	2.0590	
-0.1500	 1.72102336689959E-0004	-0.2633	0.3867	-0.2633	-2.7359	1.4063	0.8508	-0.6844	-0.9883	-1.4175	0.4270	0.9998	-0.9372	-1.6322	-1.2015	0.4616	0.7564	-2.0872	-1.8696	-0.0524	-0.1147	0.0041	0.7054	0.4818	-1.6845	-1.1952	-1.2725	1.5195	0.3866	-0.2593	-2.7321	1.3957	0.8353	-0.6890	-0.9867	-1.4099	0.4275	0.9869	-0.9441	-1.6100	-1.1833	0.4457	0.7421	-2.0634	-1.8442	-0.0644	-0.1304	-0.0084	0.7172	0.4986	-1.6923	-1.1983	-1.2818	1.5126	
-0.1000	 9.60051162415501E-0007	0.0229	-0.0865	0.0229	-2.4862	0.8326	0.2284	-0.5366	-0.7241	-1.5798	0.1010	0.9168	-0.8598	-1.3063	-1.0328	0.2012	0.6077	-1.4748	-1.3028	-0.0856	-0.3159	0.0114	0.6111	0.5342	-1.9317	-0.9959	-1.2220	0.9487	-0.0841	0.0227	-2.4882	0.8333	0.2292	-0.5367	-0.7240	-1.5797	0.1007	0.9159	-0.8595	-1.3058	-1.0326	0.2002	0.6074	-1.4738	-1.3017	-0.0864	-0.3167	-0.0093	0.6121	0.5352	-1.9314	-0.9965	-1.2227	0.9505	
-0.0500	 1.64780873483659E-0004	0.3096	-0.5647	0.3096	-2.2347	0.2495	-0.4023	-0.3880	-0.4589	-1.7438	-0.2270	0.8344	-0.7814	-0.9794	-0.8640	-0.0605	0.4586	-0.8590	-0.7332	-0.1165	-0.5164	-0.0133	0.5132	0.5835	-2.1796	-0.7935	-1.1699	0.3713	-0.5596	0.3051	-2.2425	0.2647	-0.3830	-0.3836	-0.4606	-1.7501	-0.2275	0.8453	-0.7743	-1.0004	-0.8821	-0.0460	0.4720	-0.8816	-0.7568	-0.1063	-0.5028	-0.0018	0.5030	0.5688	-2.1709	-0.7916	-1.1617	0.3816	
0.0000	 6.51431253780369E-0004	0.5958	-1.0455	0.5958	-1.9814	-0.3290	-1.0276	-0.2393	-0.1937	-1.9080	-0.5547	0.7516	-0.7031	-0.6523	-0.6957	-0.3228	0.3086	-0.2435	-0.1635	-0.1465	-0.7164	0.0096	0.4125	0.6302	-2.4265	-0.5897	-1.1161	-0.2095	-1.0379	0.5878	-1.9947	-0.3032	-0.9934	-0.2307	-0.1965	-1.9214	-0.5559	0.7749	-0.6887	-0.6957	-0.7324	-0.2930	0.3359	-0.2883	-0.2114	-0.1249	-0.6880	0.0021	0.3909	0.5996	-2.4107	-0.5849	-1.0991	-0.1911	
0.0500	 1.51048410070485E-0003	0.8827	-1.5282	0.8827	-1.7265	-0.9116	-1.6550	-0.0902	0.0708	-2.0730	-0.8832	0.6692	-0.6244	-0.3258	-0.5291	-0.5842	0.1599	0.3714	0.4050	-0.1744	-0.9154	0.0281	0.3064	0.6713	-2.6731	-0.3843	-1.0601	-0.7946	-1.5192	0.8705	-1.7448	-0.8764	-1.6070	-0.0767	0.0675	-2.0940	-0.8858	0.7061	-0.6019	-0.3924	-0.5850	-0.5381	0.2021	0.3019	0.3307	-0.1408	-0.8708	-0.0202	0.2735	0.6247	-2.6496	-0.3761	-1.0334	-0.7684	
0.1000	 2.64074078567067E-0003	1.1675	-2.0093	1.1675	-1.4717	-1.4907	-2.2767	0.0595	0.3349	-2.2411	-1.2124	0.5895	-0.5439	-0.0048	-0.3678	-0.8440	0.0126	0.9789	0.9660	-0.2002	-1.1114	0.0255	0.1977	0.7094	-2.9177	-0.1787	-1.0021	-1.3772	-1.9988	1.1520	-1.4946	-1.4435	-2.2133	0.0777	0.3307	-2.2688	-1.2158	0.6382	-0.5142	-0.0923	-0.4409	-0.7822	0.0690	0.8877	0.8686	-0.1551	-1.0523	0.0043	0.1527	0.6458	-2.8874	-0.1667	-0.9668	-1.3439	
0.1500	 4.03939638108320E-0003	1.4517	-2.4890	1.4517	-1.2156	-2.0673	-2.8927	0.2105	0.5994	-2.4115	-1.5430	0.5110	-0.4623	0.3133	-0.2093	-1.1015	-0.1322	1.5811	1.5220	-0.2240	-1.3054	-0.0122	0.0854	0.7431	-3.1621	0.0289	-0.9428	-1.9593	-2.4759	1.4326	-1.2441	-2.0116	-2.8166	0.2331	0.5931	-2.4457	-1.5473	0.5721	-0.4254	0.2046	-0.3002	-1.0244	-0.0618	1.4687	1.4016	-0.1679	-1.2318	-0.0044	0.0298	0.6642	-3.1240	0.0433	-0.8979	-1.9182	
0.2000	 5.77358929767521E-0003	1.7334	-2.9627	1.7334	-0.9615	-2.6395	-3.5011	0.3612	0.8602	-2.5840	-1.8733	0.4351	-0.3796	0.6245	-0.0574	-1.3558	-0.2744	2.1727	2.0680	-0.2455	-1.4961	0.0198	-0.0310	0.7712	-3.4035	0.2352	-0.8819	-2.5333	-2.9493	1.7109	-0.9944	-2.5733	-3.4117	0.3889	0.8567	-2.6258	-1.8784	0.5088	-0.3347	0.4940	-0.1658	-1.2629	-0.1898	2.0382	1.9241	-0.1782	-1.4074	0.0275	-0.0972	0.6777	-3.3588	0.2536	-0.8275	-2.4863	
