Arquivo: c:\arq\medidas\BBA_0603_073413\BBA_AMP01A_V.dat
Data: 0603	 Hora:  0913
Comentário: 
NomeParametro	 ValorParametro
Nmedias	5
PausaCorretora	3000
PausaShunt	2000
PausaLeitura	500
NumCiclos	3
 NPassosCor	9
DeltaShunt	1.50
TetaIni	-0.20
TetaFim	0.20
I[mA]	  19.3
ACV07A	DeltaPos^2	AMP01A	AMP01B_0	AMP02A_0	AMP02B_0	AMP03A_0	AMP03B_0	AMP04A_0	AMP04B_0	AMP05A_0	AMP05B_0	AMP06A_0	AMP06B_0	AMP07A_0	AMP07B_0	AMP08A_0	AMP08B_0	AMP09A_0	AMP09B_0	AMP10A_0	AMP10B_0	AMP11A_0	AMU11A_0	AMU11B_0	AMP11B_0	AMP12A_0	AMP12B_0	AMP01A_0	AMP01B_1	AMP02A_1	AMP02B_1	AMP03A_1	AMP03B_1	AMP04A_1	AMP04B_1	AMP05A_1	AMP05B_1	AMP06A_1	AMP06B_1	AMP07A_1	AMP07B_1	AMP08A_1	AMP08B_1	AMP09A_1	AMP09B_1	AMP10A_1	AMP10B_1	AMP11A_1	AMU11A_1	AMU11B_1	AMP11B_1	AMP12A_1	AMP12B_1	AMP01A_1	
-0.2000	 6.75561866747684E-0003	-2.1032	1.8185	1.6286	1.3814	1.0756	0.4632	-0.3020	0.7283	2.9710	0.0779	-0.0963	-2.5701	-2.2909	1.7933	2.4192	1.3874	1.4548	-2.2741	-0.7490	0.8587	0.0051	2.0633	1.9251	-2.6988	0.5867	-0.9655	-2.1032	1.8996	1.7085	1.4595	1.1570	0.3530	-0.3779	0.7489	3.0468	0.0865	-0.1277	-2.6650	-2.4289	1.9195	2.5154	1.4442	1.4870	-2.3844	-0.7970	0.9132	-0.0191	2.1596	1.9016	-2.9242	0.5260	-1.0623	-2.2194	
-0.1500	 4.31756370431948E-0003	-1.5665	1.3087	1.2328	1.1600	0.9497	0.8483	-0.1108	0.4852	2.4835	0.2803	0.1859	-2.1604	-1.7471	1.4569	2.0930	1.0466	1.1053	-1.7225	-0.4300	0.8029	0.0055	1.8076	1.8284	-1.9759	0.6853	-0.5824	-1.5665	1.3743	1.2971	1.2220	1.0147	0.7614	-0.1704	0.5016	2.5442	0.2866	0.1607	-2.2364	-1.8583	1.5577	2.1702	1.0921	1.1314	-1.8110	-0.4685	0.8463	0.0097	1.8842	1.8102	-2.1568	0.6370	-0.6594	-1.6599	
-0.1000	 2.23425080439137E-0003	-1.0087	0.7799	0.8225	0.9290	0.8190	1.2475	0.0881	0.2365	1.9779	0.4854	0.4748	-1.7343	-1.1813	1.1066	1.7527	0.6931	0.7444	-1.1486	-0.1003	0.7457	-0.0050	1.5430	1.7282	-1.2178	0.7864	-0.1858	-1.0087	0.8275	0.8691	0.9739	0.8651	1.1850	0.0454	0.2485	2.0220	0.4898	0.4567	-1.7894	-1.2612	1.1784	1.8082	0.7260	0.7631	-1.2125	-0.1277	0.7765	-0.0087	1.5980	1.7154	-1.3488	0.7519	-0.2412	-1.0762	
-0.0500	 7.59862988650266E-0004	-0.4377	0.2414	0.4046	0.6929	0.6835	1.6524	0.2928	-0.0140	1.4628	0.6904	0.7668	-1.2998	-0.6033	0.7478	1.4049	0.3330	0.3777	-0.5615	0.2355	0.6884	0.0003	1.2741	1.6257	-0.4405	0.8887	0.2180	-0.4377	0.2695	0.4319	0.7187	0.7104	1.6161	0.2676	-0.0067	1.4886	0.6926	0.7561	-1.3319	-0.6497	0.7894	1.4371	0.3521	0.3882	-0.5990	0.2196	0.7065	-0.0035	1.3065	1.6182	-0.5167	0.8690	0.1857	-0.4772	
0.0000	 5.48177512738580E-0005	0.1413	-0.3044	-0.0206	0.4519	0.5434	2.0625	0.5012	-0.2667	0.9395	0.8943	1.0611	-0.8581	-0.0144	0.3826	1.0510	-0.0335	0.0041	0.0356	0.5764	0.6315	0.0219	1.0014	1.5198	0.3518	0.9912	0.6270	0.1413	-0.2967	-0.0133	0.4585	0.5502	2.0528	0.4948	-0.2642	0.9468	0.8944	1.0575	-0.8668	-0.0268	0.3938	1.0595	-0.0286	0.0063	0.0260	0.5726	0.6375	-0.0021	1.0103	1.5178	0.3319	0.9855	0.6184	0.1307	
0.0500	 1.83452917110598E-0004	0.7233	-0.8541	-0.4478	0.2093	0.4016	2.4726	0.7112	-0.5191	0.4157	1.0973	1.3537	-0.4145	0.5745	0.0177	0.6951	-0.4025	-0.3728	0.6366	0.9204	0.5764	0.0069	0.7286	1.4113	1.1468	1.0922	1.0366	0.7233	-0.8677	-0.4607	0.1962	0.3877	2.4903	0.7236	-0.5216	0.4039	1.0947	1.3579	-0.3987	0.5977	-0.0031	0.6791	-0.4124	-0.3793	0.6560	0.9294	0.5685	0.0012	0.7137	1.4141	1.1855	1.1006	1.0518	0.7428	
0.1000	 1.15989342007616E-0003	1.3030	-1.3992	-0.8725	-0.0335	0.2597	2.8774	0.9211	-0.7685	-0.1059	1.2977	1.6436	0.0266	1.1602	-0.3429	0.3424	-0.7708	-0.7508	1.2351	1.2640	0.5239	-0.0090	0.4587	1.3006	1.9336	1.1908	1.4426	1.3030	-1.4335	-0.9058	-0.0661	0.2254	2.9213	0.9529	-0.7759	-0.1364	1.2922	1.6551	0.0658	1.2186	-0.3948	0.3019	-0.7952	-0.7663	1.2822	1.2851	0.5031	-0.0059	0.4202	1.3087	2.0282	1.2138	1.4823	1.3515	
0.1500	 2.84318819404910E-0003	1.8764	-1.9384	-1.2934	-0.2742	0.1185	3.2768	1.1301	-1.0148	-0.6218	1.4953	1.9292	0.4624	1.7384	-0.6964	-0.0068	-1.1379	-1.1290	1.8283	1.6062	0.4743	-0.0117	0.1929	1.1869	2.7062	1.2861	1.8452	1.8764	-1.9921	-1.3455	-0.3260	0.0638	3.3453	1.1803	-1.0260	-0.6694	1.4862	1.9469	0.5240	1.8288	-0.7777	-0.0695	-1.1764	-1.1530	1.9019	1.6395	0.4417	-0.0156	0.1320	1.1997	2.8532	1.3225	1.9066	1.9530	
0.2000	 5.06831594277690E-0003	2.4373	-2.4654	-1.7058	-0.5109	-0.0203	3.6654	1.3347	-1.2555	-1.1267	1.6886	2.2090	0.8886	2.3013	-1.0377	-0.3466	-1.5001	-1.5045	2.4097	1.9444	0.4290	0.0015	-0.0655	1.0716	3.4540	1.3762	2.2382	2.4373	-2.5362	-1.7754	-0.5802	-0.0938	3.7572	1.4020	-1.2699	-1.1894	1.6760	2.2318	0.9707	2.4221	-1.1461	-0.4304	-1.5514	-1.5365	2.5075	1.9882	0.3845	-0.0111	-0.1476	1.0890	3.6479	1.4248	2.3209	2.5391	
