Arquivo: c:\arq\medidas\BBA_0603_073413\BBA_AMP11B_V.dat
Data: 0603	 Hora:  0902
Comentário: 
NomeParametro	 ValorParametro
Nmedias	5
PausaCorretora	3000
PausaShunt	2000
PausaLeitura	500
NumCiclos	3
 NPassosCor	9
DeltaShunt	1.50
TetaIni	-0.20
TetaFim	0.20
I[mA]	  25.9
ACV09A	DeltaPos^2	AMP11B	AMP01B_0	AMP02A_0	AMP02B_0	AMP03A_0	AMP03B_0	AMP04A_0	AMP04B_0	AMP05A_0	AMP05B_0	AMP06A_0	AMP06B_0	AMP07A_0	AMP07B_0	AMP08A_0	AMP08B_0	AMP09A_0	AMP09B_0	AMP10A_0	AMP10B_0	AMP11A_0	AMU11A_0	AMU11B_0	AMP11B_0	AMP12A_0	AMP12B_0	AMP01A_0	AMP01B_1	AMP02A_1	AMP02B_1	AMP03A_1	AMP03B_1	AMP04A_1	AMP04B_1	AMP05A_1	AMP05B_1	AMP06A_1	AMP06B_1	AMP07A_1	AMP07B_1	AMP08A_1	AMP08B_1	AMP09A_1	AMP09B_1	AMP10A_1	AMP10B_1	AMP11A_1	AMU11A_1	AMU11B_1	AMP11B_1	AMP12A_1	AMP12B_1	AMP01A_1	
-0.2000	 4.27560058717987E-0003	3.7956	-0.1083	-0.4293	-0.9191	-1.5137	3.4631	1.9382	0.4874	1.2587	-0.6176	0.4317	-0.0314	1.7431	-0.2952	0.1111	-1.4475	-1.8308	1.0290	1.6616	1.9293	0.0006	1.9872	-0.0683	3.7956	-0.1459	0.6900	0.9693	-0.0216	-0.3929	-0.9609	-1.6069	3.4834	1.9884	0.5632	1.3482	-0.7286	0.3570	-0.0464	1.7643	-0.2440	0.1179	-1.5091	-1.9344	1.1001	1.7274	1.9900	-0.0097	2.0254	-0.1504	3.8741	-0.2210	0.6371	0.9349	
-0.1500	 2.61215868769021E-0003	3.0050	-0.1560	-0.3343	-0.5978	-1.0305	3.1372	1.5970	0.3072	1.1799	-0.2578	0.5816	-0.2246	1.3323	-0.1326	0.3324	-1.1179	-1.4057	0.8026	1.4107	1.6254	0.0067	1.7526	0.3054	3.0050	0.1231	0.6764	0.7740	-0.0886	-0.3061	-0.6306	-1.1037	3.1537	1.6370	0.3664	1.2496	-0.3445	0.5235	-0.2364	1.3477	-0.0925	0.3380	-1.1660	-1.4870	0.8578	1.4623	1.6729	-0.0014	1.7824	0.2413	3.0680	0.0640	0.6354	0.7474	
-0.1000	 1.28887047065927E-0003	2.1880	-0.2066	-0.2387	-0.2703	-0.5361	2.8041	1.2500	0.1231	1.0979	0.1103	0.7354	-0.4202	0.9125	0.0305	0.5567	-0.7810	-0.9697	0.5712	1.1547	1.3139	-0.0066	1.5125	0.6865	2.1880	0.3967	0.6638	0.5771	-0.1596	-0.2190	-0.2933	-0.5878	2.8153	1.2783	0.1648	1.1467	0.0492	0.6945	-0.4283	0.9247	0.0585	0.5606	-0.8149	-1.0270	0.6099	1.1906	1.3478	-0.0001	1.5336	0.6416	2.2326	0.3555	0.6352	0.5588	
-0.0500	 4.03113523327662E-0004	1.3494	-0.2608	-0.1435	0.0618	-0.0334	2.4650	0.8975	-0.0646	1.0137	0.4837	0.8921	-0.6170	0.4887	0.1935	0.7826	-0.4390	-0.5247	0.3365	0.8932	0.9961	-0.0040	1.2675	1.0722	1.3494	0.6744	0.6534	0.3797	-0.2340	-0.1323	0.0490	-0.0623	2.4713	0.9128	-0.0414	1.0410	0.4497	0.8691	-0.6219	0.4949	0.2094	0.7849	-0.4578	-0.5568	0.3578	0.9135	1.0152	0.0152	1.2790	1.0472	1.3741	0.6514	0.6370	0.3691	
0.0000	 1.52309920694197E-0005	0.4974	-0.3174	-0.0492	0.3962	0.4744	2.1214	0.5408	-0.2538	0.9273	0.8596	1.0505	-0.8144	0.0614	0.3558	1.0097	-0.0936	-0.0755	0.1001	0.6296	0.6742	-0.0054	1.0190	1.4604	0.4974	0.9557	0.6445	0.1824	-0.3119	-0.0469	0.3939	0.4688	2.1219	0.5437	-0.2494	0.9328	0.8529	1.0461	-0.8155	0.0627	0.3591	1.0102	-0.0974	-0.0815	0.1043	0.6332	0.6777	-0.0082	1.0213	1.4556	0.5022	0.9513	0.6412	0.1801	
0.0500	 1.48448743649337E-0004	-0.3593	-0.3770	0.0441	0.7317	0.9837	1.7747	0.1831	-0.4436	0.8413	1.2374	1.2096	-1.0123	-0.3671	0.5185	1.2378	0.2531	0.3761	-0.1366	0.3651	0.3494	0.0223	0.7672	1.8502	-0.3593	1.2385	0.6373	-0.0134	-0.3930	0.0374	0.7396	1.0011	1.7701	0.1745	-0.4573	0.8248	1.2579	1.2236	-1.0093	-0.3710	0.5086	1.2357	0.2648	0.3955	-0.1499	0.3527	0.3378	0.0124	0.7599	1.8656	-0.3754	1.2522	0.6471	-0.0071	
0.1000	 8.01491402807322E-0004	-1.2145	-0.4395	0.1362	1.0658	1.4896	1.4270	-0.1744	-0.6326	0.7554	1.6129	1.3679	-1.2093	-0.7958	0.6801	1.4628	0.5988	0.8267	-0.3711	0.1015	0.0243	-0.0211	0.5133	2.2379	-1.2145	1.5201	0.6315	-0.2069	-0.4771	0.1202	1.0841	1.5298	1.4174	-0.1961	-0.6653	0.7167	1.6604	1.3999	-1.2025	-0.8045	0.6577	1.4594	0.6254	0.8718	-0.4016	0.0729	-0.0025	-0.0037	0.4962	2.2729	-1.2502	1.5529	0.6547	-0.1920	
0.1500	 1.92146993245003E-0003	-2.0590	-0.5044	0.2258	1.3972	1.9926	1.0816	-0.5289	-0.8206	0.6703	1.9842	1.5246	-1.4057	-1.2210	0.8415	1.6882	0.9417	1.2741	-0.6017	-0.1594	-0.3002	0.0082	0.2584	2.6213	-2.0590	1.8012	0.6276	-0.3971	-0.5636	0.2005	1.4246	2.0544	1.0669	-0.5625	-0.8717	0.6099	2.0580	1.5746	-1.3949	-1.2343	0.8067	1.6826	0.9828	1.3434	-0.6488	-0.2035	-0.3417	0.0124	0.2318	2.6752	-2.1134	1.8508	0.6640	-0.3732	
0.2000	 3.46393254837638E-0003	-2.8877	-0.5722	0.3127	1.7246	2.4898	0.7358	-0.8801	-1.0064	0.5869	2.3506	1.6796	-1.6011	-1.6429	1.0030	1.9108	1.2813	1.7154	-0.8273	-0.4172	-0.6239	0.0004	0.0031	3.0004	-2.8877	2.0789	0.6261	-0.5836	-0.6522	0.2782	1.7610	2.5719	0.7167	-0.9255	-1.0751	0.5057	2.4488	1.7468	-1.5861	-1.6602	0.9553	1.9035	1.3360	1.8089	-0.8908	-0.4762	-0.6795	0.0268	-0.0321	3.0726	-2.9586	2.1458	0.6751	-0.5506	
