Arquivo: c:\arq\medidas\BBA_0603_073413\BBA_AMP11A_V.dat
Data: 0603	 Hora:  0850
Comentário: 
NomeParametro	 ValorParametro
Nmedias	5
PausaCorretora	3000
PausaShunt	2000
PausaLeitura	500
NumCiclos	3
 NPassosCor	9
DeltaShunt	1.50
TetaIni	-0.20
TetaFim	0.20
I[mA]	  32.8
ACV01B	DeltaPos^2	AMP11A	AMP01B_0	AMP02A_0	AMP02B_0	AMP03A_0	AMP03B_0	AMP04A_0	AMP04B_0	AMP05A_0	AMP05B_0	AMP06A_0	AMP06B_0	AMP07A_0	AMP07B_0	AMP08A_0	AMP08B_0	AMP09A_0	AMP09B_0	AMP10A_0	AMP10B_0	AMP11A_0	AMU11A_0	AMU11B_0	AMP11B_0	AMP12A_0	AMP12B_0	AMP01A_0	AMP01B_1	AMP02A_1	AMP02B_1	AMP03A_1	AMP03B_1	AMP04A_1	AMP04B_1	AMP05A_1	AMP05B_1	AMP06A_1	AMP06B_1	AMP07A_1	AMP07B_1	AMP08A_1	AMP08B_1	AMP09A_1	AMP09B_1	AMP10A_1	AMP10B_1	AMP11A_1	AMU11A_1	AMU11B_1	AMP11B_1	AMP12A_1	AMP12B_1	AMP01A_1	
-0.2000	 6.53644355447380E-0003	-0.0121	-2.4548	-1.6446	-0.5477	-0.1064	3.6656	1.3551	-1.1624	-1.0003	1.5654	2.1102	0.8486	2.1606	-2.0770	-0.6104	-0.5432	0.2035	1.3912	0.9087	-0.6872	-0.0121	-0.8595	2.4698	3.4968	2.3050	2.0400	1.4977	-2.5880	-1.7249	-0.5442	-0.0495	3.6971	1.3384	-1.2524	-1.1342	1.6782	2.2044	0.9138	2.2102	-2.1955	-0.6677	-0.5060	0.2994	1.3728	0.8622	-0.7814	-0.0074	-0.9629	2.5083	3.5262	2.3725	2.1299	1.5962	
-0.1500	 4.08689721642492E-0003	-0.0237	-1.9605	-1.2716	-0.3199	0.0419	3.3018	1.1532	-0.9565	-0.5558	1.4126	1.8690	0.4588	1.6657	-1.5108	-0.2289	-0.4324	0.1463	1.0891	0.8406	-0.3763	-0.0237	-0.4290	2.2428	2.7914	1.9988	1.7162	1.1879	-2.0666	-1.3353	-0.3177	0.0863	3.3276	1.1421	-1.0282	-0.6617	1.5006	1.9432	0.5111	1.7059	-1.6054	-0.2747	-0.4042	0.2205	1.0761	0.8046	-0.4505	-0.0110	-0.5110	2.2734	2.8163	2.0523	1.7877	1.2661	
-0.1000	 2.07416502751954E-0003	0.0079	-1.4607	-0.8962	-0.0931	0.1875	2.9353	0.9544	-0.7478	-0.1063	1.2556	1.6238	0.0666	1.1686	-0.9388	0.1547	-0.3209	0.0887	0.7852	0.7725	-0.0643	0.0079	0.0044	2.0146	2.0773	1.6889	1.3887	0.8741	-1.5365	-0.9418	-0.0916	0.2190	2.9540	0.9463	-0.7986	-0.1815	1.3183	1.6767	0.1038	1.1965	-1.0066	0.1213	-0.3017	0.1407	0.7767	0.7466	-0.1170	-0.0332	-0.0541	2.0367	2.0957	1.7273	1.4399	0.9298	
-0.0500	 5.98698996981199E-0004	-0.0071	-0.9134	-0.4858	0.1535	0.3440	2.5336	0.7386	-0.5179	0.3866	1.0815	1.3543	-0.3624	0.6213	-0.3120	0.5731	-0.1996	0.0260	0.4525	0.6960	0.2761	-0.0071	0.4767	1.7652	1.2919	1.3489	1.0303	0.5304	-0.9543	-0.5105	0.1539	0.3608	2.5441	0.7348	-0.5451	0.3462	1.1144	1.3826	-0.3419	0.6381	-0.3487	0.5549	-0.1894	0.0535	0.4487	0.6843	0.2478	0.0050	0.4453	1.7773	1.3023	1.3695	1.0582	0.5604	
0.0000	 9.40319134243457E-0006	-0.0151	-0.3705	-0.0802	0.3949	0.4970	2.1345	0.5269	-0.2884	0.8743	0.9061	1.0852	-0.7867	0.0821	0.3088	0.9863	-0.0797	-0.0358	0.1239	0.6220	0.6126	-0.0151	0.9436	1.5180	0.5123	1.0110	0.6748	0.1906	-0.3757	-0.0831	0.3949	0.4990	2.1359	0.5264	-0.2917	0.8688	0.9100	1.0887	-0.7842	0.0843	0.3042	0.9844	-0.0785	-0.0324	0.1235	0.6206	0.6090	-0.0054	0.9397	1.5199	0.5135	1.0135	0.6782	0.1942	
0.0500	 3.53593015758445E-0004	-0.0136	0.1714	0.3263	0.6371	0.6499	1.7320	0.3155	-0.0576	1.3636	0.7300	0.8140	-1.2120	-0.4603	0.9311	1.4009	0.0406	-0.0983	-0.2056	0.5485	0.9503	-0.0136	1.4095	1.2692	-0.2713	0.6698	0.3180	-0.1488	0.2027	0.3452	0.6371	0.6375	1.7239	0.3184	-0.0369	1.3948	0.7043	0.7921	-1.2277	-0.4729	0.9597	1.4148	0.0328	-0.1191	-0.2027	0.5583	0.9721	0.0052	1.4333	1.2599	-0.2802	0.6537	0.2969	-0.1719	
0.1000	 1.62712454996746E-0003	-0.0094	0.7120	0.7312	0.8801	0.8036	1.3274	0.1031	0.1734	1.8520	0.5529	0.5421	-1.6370	-1.0030	1.5520	1.8147	0.1606	-0.1615	-0.5352	0.4749	1.2887	-0.0094	1.8757	1.0190	-1.0569	0.3280	-0.0381	-0.4878	0.7793	0.7719	0.8792	0.7768	1.3098	0.1097	0.2182	1.9180	0.4974	0.4951	-1.6705	-1.0302	1.6129	1.8447	0.1441	-0.2063	-0.5289	0.4963	1.3346	-0.0085	1.9269	0.9992	-1.0750	0.2934	-0.0838	-0.5377	
0.1500	 3.72104716343338E-0003	0.0084	1.2458	1.1320	1.1214	0.9580	0.9230	-0.1085	0.4020	2.3335	0.3774	0.2730	-2.0578	-1.5410	2.1661	2.2236	0.2794	-0.2247	-0.8617	0.4022	1.6239	0.0084	2.3359	0.7679	-1.8352	-0.0124	-0.3893	-0.8211	1.3473	1.1935	1.1205	0.9176	0.8957	-0.0991	0.4701	2.4334	0.2935	0.2019	-2.1086	-1.5818	2.2571	2.2685	0.2545	-0.2932	-0.8519	0.4344	1.6938	0.0134	2.4135	0.7381	-1.8632	-0.0650	-0.4587	-0.8965	
0.2000	 6.40246908573354E-0003	-0.0000	1.7657	1.5238	1.3602	1.1140	0.5233	-0.3183	0.6263	2.8032	0.2061	0.0088	-2.4696	-2.0688	2.7660	2.6241	0.3954	-0.2883	-1.1813	0.3311	1.9539	-0.0000	2.7856	0.5180	-2.5973	-0.3483	-0.7327	-1.1443	1.8988	1.6046	1.3588	1.0605	0.4874	-0.3058	0.7160	2.9335	0.0955	-0.0851	-2.5357	-2.1216	2.8833	2.6824	0.3618	-0.3797	-1.1680	0.3744	2.0461	0.0142	2.8865	0.4792	-2.6333	-0.4173	-0.8244	-1.2431	
