Arquivo: c:\arq\medidas\BBA_0603_073413\BBA_AMP09B_V.dat
Data: 0603	 Hora:  0838
Comentário: 
NomeParametro	 ValorParametro
Nmedias	5
PausaCorretora	3000
PausaShunt	2000
PausaLeitura	500
NumCiclos	3
 NPassosCor	9
DeltaShunt	1.50
TetaIni	-0.20
TetaFim	0.20
I[mA]	  42.6
ACV07A	DeltaPos^2	AMP09B	AMP01B_0	AMP02A_0	AMP02B_0	AMP03A_0	AMP03B_0	AMP04A_0	AMP04B_0	AMP05A_0	AMP05B_0	AMP06A_0	AMP06B_0	AMP07A_0	AMP07B_0	AMP08A_0	AMP08B_0	AMP09A_0	AMP09B_0	AMP10A_0	AMP10B_0	AMP11A_0	AMU11A_0	AMU11B_0	AMP11B_0	AMP12A_0	AMP12B_0	AMP01A_0	AMP01B_1	AMP02A_1	AMP02B_1	AMP03A_1	AMP03B_1	AMP04A_1	AMP04B_1	AMP05A_1	AMP05B_1	AMP06A_1	AMP06B_1	AMP07A_1	AMP07B_1	AMP08A_1	AMP08B_1	AMP09A_1	AMP09B_1	AMP10A_1	AMP10B_1	AMP11A_1	AMU11A_1	AMU11B_1	AMP11B_1	AMP12A_1	AMP12B_1	AMP01A_1	
-0.2000	 7.43271818210780E-0003	-2.2291	1.7660	1.5856	1.3429	1.0483	0.5147	-0.2984	0.7061	2.9059	0.1022	-0.0750	-2.5146	-2.2229	1.7184	2.3723	1.3792	1.4624	-2.2291	-0.7403	0.8268	-0.0077	1.9981	1.9302	-2.5863	0.6114	-0.9197	-2.0491	1.8390	1.6649	1.4331	1.1501	0.3953	-0.3871	0.7157	2.9729	0.1292	-0.0962	-2.6134	-2.3758	1.8454	2.4745	1.4500	1.5142	-2.3581	-0.8350	0.7815	-0.0065	1.9976	2.0106	-2.8389	0.6416	-0.9830	-2.1670	
-0.1500	 5.02712782975660E-0003	-1.6883	1.2687	1.1997	1.1287	0.9294	0.8871	-0.1144	0.4690	2.4327	0.3007	0.2005	-2.1169	-1.6972	1.4011	2.0577	1.0418	1.1120	-1.6883	-0.4232	0.7796	-0.0148	1.7550	1.8304	-1.8870	0.7008	-0.5480	-1.5276	1.3293	1.2654	1.2028	1.0131	0.7899	-0.1868	0.4768	2.4882	0.3229	0.1833	-2.1984	-1.8222	1.5055	2.1417	1.1003	1.1553	-1.7950	-0.5008	0.7430	-0.0095	1.7551	1.8960	-2.0965	0.7263	-0.6003	-1.6254	
-0.1000	 2.89737562478616E-0003	-1.1268	0.7541	0.8005	0.9061	0.8061	1.2721	0.0767	0.2261	1.9433	0.5019	0.4829	-1.7044	-1.1503	1.0708	1.7305	0.6925	0.7509	-1.1268	-0.0959	0.7307	-0.0078	1.5040	1.7269	-1.1563	0.7937	-0.1637	-0.9869	0.8008	0.8504	0.9621	0.8692	1.1985	0.0221	0.2320	1.9847	0.5189	0.4701	-1.7662	-1.2454	1.1502	1.7936	0.7374	0.7841	-1.2081	-0.1549	0.7033	-0.0301	1.5043	1.7767	-1.3158	0.8131	-0.2037	-1.0615	
-0.0500	 1.29470431621323E-0003	-0.5524	0.2308	0.3939	0.6781	0.6779	1.6631	0.2725	-0.0184	1.4437	0.7030	0.7685	-1.2838	-0.5917	0.7323	1.3957	0.3369	0.3841	-0.5524	0.2370	0.6826	-0.0106	1.2490	1.6211	-0.4063	0.8875	0.2267	-0.4334	0.2617	0.4273	0.7156	0.7202	1.6139	0.2365	-0.0145	1.4719	0.7144	0.7595	-1.3250	-0.6553	0.7851	1.4381	0.3669	0.4062	-0.6073	0.1978	0.6649	-0.0047	1.2496	1.6541	-0.5136	0.9002	0.2000	-0.4836	
0.0000	 3.03410472625292E-0004	0.0310	-0.2999	-0.0193	0.4460	0.5458	2.0584	0.4727	-0.2650	0.9375	0.9031	1.0553	-0.8565	-0.0236	0.3890	1.0549	-0.0248	0.0105	0.0310	0.5749	0.6341	-0.0037	0.9907	1.5118	0.3565	0.9811	0.6221	0.1267	-0.2846	-0.0031	0.4640	0.5662	2.0346	0.4544	-0.2631	0.9510	0.9085	1.0510	-0.8763	-0.0540	0.4142	1.0757	-0.0103	0.0214	0.0045	0.5559	0.6252	-0.0040	0.9911	1.5279	0.3048	0.9878	0.6093	0.1026	
0.0500	 2.53054745261643E-0006	0.6183	-0.8343	-0.4345	0.2121	0.4121	2.4541	0.6740	-0.5113	0.4304	1.1027	1.3410	-0.4270	0.5458	0.0452	0.7128	-0.3891	-0.3665	0.6183	0.9161	0.5879	-0.0221	0.7323	1.3997	1.1221	1.0738	1.0181	0.6905	-0.8357	-0.4360	0.2105	0.4101	2.4560	0.6758	-0.5115	0.4293	1.1019	1.3416	-0.4251	0.5487	0.0430	0.7109	-0.3904	-0.3675	0.6208	0.9176	0.5891	-0.0124	0.7327	1.3987	1.1268	1.0733	1.0192	0.6926	
0.1000	 4.10128020976738E-0004	1.2041	-1.3652	-0.8487	-0.0222	0.2781	2.8455	0.8754	-0.7552	-0.0754	1.2999	1.6248	0.0003	1.1120	-0.2951	0.3728	-0.7532	-0.7446	1.2041	1.2571	0.5439	0.0043	0.4763	1.2859	1.8813	1.1644	1.4118	1.2526	-1.3825	-0.8670	-0.0435	0.2538	2.8720	0.8965	-0.7568	-0.0905	1.2927	1.6285	0.0234	1.1478	-0.3246	0.3491	-0.7702	-0.7574	1.2350	1.2793	0.5550	0.0010	0.4769	1.2667	1.9410	1.1570	1.4268	1.2808	
0.1500	 1.47513225252242E-0003	1.7845	-1.8910	-1.2585	-0.2543	0.1450	3.2316	1.0759	-0.9967	-0.5762	1.4947	1.9046	0.4227	1.6703	-0.6287	0.0368	-1.1157	-1.1228	1.7845	1.5962	0.5026	-0.0137	0.2240	1.1694	2.6265	1.2519	1.8020	1.8091	-1.9231	-1.2936	-0.2951	0.0985	3.2818	1.1159	-0.9990	-0.6043	1.4806	1.9117	0.4663	1.7388	-0.6840	-0.0080	-1.1480	-1.1473	1.8430	1.6388	0.5238	0.0101	0.2257	1.1326	2.7386	1.2369	1.8297	1.8620	
0.2000	 3.05160970678072E-0003	2.3563	-2.4082	-1.6629	-0.4840	0.0133	3.6097	1.2748	-1.2340	-1.0692	1.6867	2.1797	0.8385	2.2191	-0.9529	-0.2931	-1.4756	-1.5002	2.3563	1.9332	0.4645	-0.0122	-0.0228	1.0507	3.3534	1.3351	2.1856	2.3573	-2.4540	-1.7136	-0.5430	-0.0544	3.6823	1.3320	-1.2372	-1.1091	1.6656	2.1902	0.9013	2.3154	-1.0326	-0.3580	-1.5225	-1.5353	2.4405	1.9948	0.4961	-0.0030	-0.0198	0.9960	3.5135	1.3131	2.2251	2.4328	
