Arquivo: c:\arq\medidas\BBA_0603_073413\BBA_AMP10B_V.dat
Data: 0603	 Hora:  0846
Comentário: 
NomeParametro	 ValorParametro
Nmedias	5
PausaCorretora	3000
PausaShunt	2000
PausaLeitura	500
NumCiclos	3
 NPassosCor	9
DeltaShunt	3.00
TetaIni	-0.20
TetaFim	0.20
I[mA]	  40.5
ACV11A	DeltaPos^2	AMP10B	AMP01B_0	AMP02A_0	AMP02B_0	AMP03A_0	AMP03B_0	AMP04A_0	AMP04B_0	AMP05A_0	AMP05B_0	AMP06A_0	AMP06B_0	AMP07A_0	AMP07B_0	AMP08A_0	AMP08B_0	AMP09A_0	AMP09B_0	AMP10A_0	AMP10B_0	AMP11A_0	AMU11A_0	AMU11B_0	AMP11B_0	AMP12A_0	AMP12B_0	AMP01A_0	AMP01B_1	AMP02A_1	AMP02B_1	AMP03A_1	AMP03B_1	AMP04A_1	AMP04B_1	AMP05A_1	AMP05B_1	AMP06A_1	AMP06B_1	AMP07A_1	AMP07B_1	AMP08A_1	AMP08B_1	AMP09A_1	AMP09B_1	AMP10A_1	AMP10B_1	AMP11A_1	AMU11A_1	AMU11B_1	AMP11B_1	AMP12A_1	AMP12B_1	AMP01A_1	
-0.2000	 1.42204678899878E-0003	-0.9327	-2.6006	-1.4086	0.4901	1.4952	2.6354	0.2356	-1.8081	-1.3580	2.7995	2.6614	0.2817	0.8719	-1.6513	0.0576	0.5527	1.5581	-0.2167	-0.1625	-0.9327	-0.0068	-0.7848	2.1837	0.9295	2.1587	2.1811	1.8152	-2.6530	-1.4338	0.5091	1.5431	2.6302	0.2114	-1.8520	-1.4121	2.8595	2.7043	0.2958	0.8682	-1.6869	0.0490	0.5848	1.6160	-0.2502	-0.1967	-0.9733	-0.0112	-0.8359	2.2196	0.8956	2.1998	2.2138	1.8409	
-0.1500	 8.27238389864134E-0004	-0.5624	-2.0698	-1.0888	0.4730	1.2652	2.5095	0.2988	-1.4471	-0.8251	2.3548	2.2884	0.0242	0.6778	-1.1814	0.2827	0.4046	1.1806	-0.1392	0.0226	-0.5624	-0.0077	-0.3701	2.0244	0.8144	1.8852	1.8215	1.4272	-2.1106	-1.1086	0.4869	1.3012	2.5067	0.2808	-1.4807	-0.8670	2.3999	2.3212	0.0358	0.6763	-1.2096	0.2751	0.4278	1.2242	-0.1630	-0.0023	-0.5938	0.0051	-0.4093	2.0517	0.7904	1.9166	1.8476	1.4477	
-0.1000	 3.49202397307614E-0004	-0.1799	-1.5182	-0.7576	0.4561	1.0282	2.3781	0.3628	-1.0745	-0.2727	1.8931	1.9009	-0.2443	0.4731	-0.6921	0.5178	0.2544	0.7932	-0.0641	0.2117	-0.1799	-0.0060	0.0601	1.8567	0.6937	1.5993	1.4487	1.0266	-1.5448	-0.7707	0.4646	1.0512	2.3773	0.3509	-1.0960	-0.3002	1.9224	1.9222	-0.2361	0.4731	-0.7110	0.5125	0.2692	0.8210	-0.0785	0.1952	-0.2003	-0.0211	0.0347	1.8753	0.6791	1.6200	1.4660	1.0401	
-0.0500	 6.57019158806021E-0005	0.2103	-0.9539	-0.4195	0.4399	0.7877	2.2422	0.4270	-0.6937	0.2908	1.4229	1.5046	-0.5197	0.2614	-0.1903	0.7594	0.1044	0.4015	0.0072	0.4004	0.2103	-0.0457	0.4991	1.6847	0.5675	1.3054	1.0676	0.6170	-0.9657	-0.4254	0.4430	0.7975	2.2432	0.4218	-0.7032	0.2788	1.4352	1.5144	-0.5157	0.2622	-0.1990	0.7564	0.1105	0.4135	0.0025	0.3943	0.2014	-0.0029	0.4885	1.6928	0.5625	1.3150	1.0753	0.6230	
0.0000	 8.33371413229440E-0006	0.6063	-0.3790	-0.0757	0.4245	0.5451	2.1030	0.4900	-0.3076	0.8606	0.9449	1.1021	-0.8007	0.0441	0.3195	1.0061	-0.0463	0.0057	0.0766	0.5907	0.6063	0.0072	0.9452	1.5084	0.4373	1.0052	0.6791	0.2011	-0.3753	-0.0744	0.4225	0.5413	2.1056	0.4925	-0.3045	0.8642	0.9399	1.0994	-0.8009	0.0456	0.3211	1.0057	-0.0491	0.0016	0.0816	0.5940	0.6089	-0.0137	0.9494	1.5072	0.4414	1.0028	0.6776	0.1999	
0.0500	 1.86937758463711E-0004	1.0051	0.1987	0.2711	0.4101	0.3021	1.9613	0.5536	0.0807	1.4331	0.4649	0.6964	-1.0841	-0.1769	0.8336	1.2547	-0.1963	-0.3901	0.1440	0.7809	1.0051	-0.0029	1.3929	1.3310	0.3033	0.7009	0.2871	-0.2176	0.2176	0.2795	0.4026	0.2845	1.9654	0.5628	0.0967	1.4525	0.4422	0.6808	-1.0885	-0.1746	0.8457	1.2574	-0.2080	-0.4106	0.1583	0.7942	1.0193	0.0052	1.4118	1.3195	0.3169	0.6871	0.2756	-0.2266	
0.1000	 6.00127984270354E-0004	1.4023	0.7762	0.6172	0.3967	0.0595	1.8175	0.6156	0.4684	2.0033	-0.0165	0.2904	-1.3671	-0.3983	1.3463	1.5030	-0.3457	-0.7864	0.2110	0.9706	1.4023	-0.0196	1.8401	1.1551	0.1668	0.3968	-0.1055	-0.6386	0.8107	0.6333	0.3842	0.0286	1.8234	0.6320	0.4966	2.0376	-0.0566	0.2624	-1.3758	-0.3952	1.3689	1.5085	-0.3663	-0.8231	0.2340	0.9936	1.4285	-0.0358	1.8738	1.1328	0.1897	0.3707	-0.1267	-0.6549	
0.1500	 1.21831231946968E-0003	1.7955	1.3496	0.9623	0.3847	-0.1804	1.6735	0.6764	0.8533	2.5655	-0.4945	-0.1134	-1.6478	-0.6180	1.8541	1.7492	-0.4945	-1.1795	0.2775	1.1592	1.7955	-0.0214	2.2826	0.9800	0.0295	0.0953	-0.4958	-1.0572	1.3985	0.9853	0.3667	-0.2248	1.6809	0.6998	0.8932	2.6141	-0.5515	-0.1534	-1.6604	-0.6139	1.8866	1.7571	-0.5237	-1.2311	0.3098	1.1913	1.8335	-0.0161	2.3307	0.9476	0.0615	0.0573	-0.5261	-1.0807	
0.2000	 1.98423729817801E-0003	2.1825	1.9127	1.3025	0.3726	-0.4168	1.5303	0.7369	1.2316	3.1141	-0.9651	-0.5114	-1.9227	-0.8322	2.3497	1.9903	-0.6425	-1.5672	0.3450	1.3457	2.1825	-0.0013	2.7151	0.8090	-0.1079	-0.2026	-0.8810	-1.4697	1.9748	1.3316	0.3496	-0.4732	1.5394	0.7669	1.2833	3.1758	-1.0379	-0.5627	-1.9386	-0.8269	2.3914	2.0001	-0.6802	-1.6336	0.3867	1.3871	2.2301	-0.0292	2.7761	0.7672	-0.0667	-0.2505	-0.9196	-1.4997	
