Arquivo: c:\arq\medidas\BBA_0603_073413\BBA_AMU11A_V.dat
Data: 0603	 Hora:  0854
Comentário: 
NomeParametro	 ValorParametro
Nmedias	5
PausaCorretora	3000
PausaShunt	2000
PausaLeitura	500
NumCiclos	3
 NPassosCor	9
DeltaShunt	1.50
TetaIni	-0.20
TetaFim	0.20
I[mA]	  30.0
ACV11A	DeltaPos^2	AMU11A	AMP01B_0	AMP02A_0	AMP02B_0	AMP03A_0	AMP03B_0	AMP04A_0	AMP04B_0	AMP05A_0	AMP05B_0	AMP06A_0	AMP06B_0	AMP07A_0	AMP07B_0	AMP08A_0	AMP08B_0	AMP09A_0	AMP09B_0	AMP10A_0	AMP10B_0	AMP11A_0	AMU11A_0	AMU11B_0	AMP11B_0	AMP12A_0	AMP12B_0	AMP01A_0	AMP01B_1	AMP02A_1	AMP02B_1	AMP03A_1	AMP03B_1	AMP04A_1	AMP04B_1	AMP05A_1	AMP05B_1	AMP06A_1	AMP06B_1	AMP07A_1	AMP07B_1	AMP08A_1	AMP08B_1	AMP09A_1	AMP09B_1	AMP10A_1	AMP10B_1	AMP11A_1	AMU11A_1	AMU11B_1	AMP11B_1	AMP12A_1	AMP12B_1	AMP01A_1	
-0.2000	 5.79087306882476E-0003	-0.8063	-2.6218	-1.4183	0.4924	1.5052	2.6427	0.2409	-1.8244	-1.3854	2.8186	2.6777	0.2913	0.8849	-1.6758	0.0465	0.5562	1.5726	-0.2182	-0.1698	-0.9497	-0.0085	-0.8063	2.1944	0.9333	2.1739	2.1959	1.8334	-2.7479	-1.4948	0.4949	1.5575	2.6741	0.2275	-1.9096	-1.5117	2.9224	2.7656	0.3533	0.9321	-1.7884	-0.0078	0.5906	1.6620	-0.2351	-0.2132	-1.0377	0.0064	-0.9036	2.2299	0.9644	2.2370	2.2814	1.9269	
-0.1500	 3.62720417812677E-0003	-0.3836	-2.0819	-1.0938	0.4744	1.2702	2.5152	0.3055	-1.4579	-0.8416	2.3647	2.2980	0.0293	0.6865	-1.1968	0.2757	0.4052	1.1890	-0.1392	0.0182	-0.5736	0.0102	-0.3836	2.0318	0.8169	1.8959	1.8312	1.4390	-2.1821	-1.1543	0.4761	1.3114	2.5402	0.2950	-1.5251	-0.9417	2.4470	2.3679	0.0789	0.7256	-1.2864	0.2321	0.4314	1.2581	-0.1508	-0.0147	-0.6431	-0.0004	-0.4609	2.0600	0.8425	1.9463	1.8988	1.5127	
-0.1000	 1.77540299237654E-0003	0.0549	-1.5201	-0.7568	0.4571	1.0281	2.3813	0.3704	-1.0775	-0.2775	1.8948	1.9033	-0.2440	0.4791	-0.6975	0.5150	0.2529	0.7938	-0.0629	0.2099	-0.1842	0.0090	0.0549	1.8606	0.6930	1.6045	1.4519	1.0304	-1.5903	-0.7989	0.4582	1.0564	2.3992	0.3641	-1.1241	-0.3474	1.9518	1.9522	-0.2089	0.5056	-0.7610	0.4839	0.2705	0.8421	-0.0702	0.1873	-0.2327	-0.0102	0.0008	1.8806	0.7099	1.6407	1.4992	1.0822	
-0.0500	 5.18453230242530E-0004	0.5028	-0.9453	-0.4127	0.4403	0.7826	2.2435	0.4352	-0.6899	0.2981	1.4149	1.5005	-0.5246	0.2617	-0.1859	0.7609	0.1000	0.3948	0.0100	0.4029	0.2130	-0.0011	0.5028	1.6845	0.5644	1.3060	1.0643	0.6134	-0.9831	-0.4355	0.4410	0.7979	2.2529	0.4314	-0.7151	0.2603	1.4460	1.5269	-0.5057	0.2770	-0.2200	0.7442	0.1096	0.4204	0.0062	0.3903	0.1865	-0.0025	0.4735	1.6954	0.5737	1.3258	1.0897	0.6411	
0.0000	 5.32829303487519E-0006	0.9578	-0.3591	-0.0632	0.4247	0.5347	2.1013	0.5016	-0.2963	0.8802	0.9276	1.0903	-0.8112	0.0393	0.3345	1.0124	-0.0526	-0.0085	0.0803	0.5958	0.6167	-0.0071	0.9578	1.5046	0.4314	0.9992	0.6689	0.1896	-0.3629	-0.0655	0.4246	0.5361	2.1023	0.5003	-0.2988	0.8763	0.9306	1.0931	-0.8093	0.0408	0.3313	1.0105	-0.0520	-0.0061	0.0801	0.5947	0.6133	0.0053	0.9549	1.5052	0.4325	1.0011	0.6712	0.1925	
0.0500	 3.40440387926195E-0004	1.4144	0.2295	0.2893	0.4099	0.2863	1.9564	0.5649	0.0994	1.4653	0.4377	0.6766	-1.1000	-0.1867	0.8594	1.2660	-0.2053	-0.4125	0.1486	0.7892	1.0222	-0.0103	1.4144	1.3230	0.2948	0.6891	0.2697	-0.2370	0.2603	0.3080	0.4098	0.2740	1.9485	0.5686	0.1199	1.4957	0.4122	0.6551	-1.1154	-0.1986	0.8870	1.2795	-0.2128	-0.4335	0.1517	0.7994	1.0430	-0.0141	1.4379	1.3139	0.2866	0.6734	0.2489	-0.2596	
0.1000	 1.51789266086339E-0003	1.8708	0.8179	0.6415	0.3962	0.0384	1.8107	0.6290	0.4943	2.0472	-0.0539	0.2635	-1.3885	-0.4127	1.3826	1.5188	-0.3574	-0.8167	0.2163	0.9822	1.4264	-0.0141	1.8708	1.1427	0.1569	0.3793	-0.1296	-0.6656	0.8826	0.6809	0.3955	0.0126	1.7933	0.6349	0.5370	2.1108	-0.1073	0.2182	-1.4209	-0.4389	1.4414	1.5481	-0.3733	-0.8600	0.2224	1.0028	1.4712	-0.0061	1.9205	1.1236	0.1388	0.3457	-0.1739	-0.7139	
0.1500	 3.41463296284912E-0003	2.3216	1.4009	0.9920	0.3832	-0.2063	1.6640	0.6922	0.8858	2.6206	-0.5417	-0.1472	-1.6740	-0.6362	1.9002	1.7699	-0.5090	-1.2172	0.2841	1.1741	1.8273	-0.0105	2.3216	0.9635	0.0176	0.0713	-0.5263	-1.0916	1.4983	1.0512	0.3826	-0.2456	1.6377	0.7012	0.9508	2.7154	-0.6216	-0.2156	-1.7228	-0.6757	1.9872	1.8128	-0.5329	-1.2828	0.2932	1.2051	1.8940	-0.0181	2.3963	0.9352	-0.0097	0.0210	-0.5933	-1.1640	
0.2000	 5.83504613306026E-0003	2.7612	1.9729	1.3365	0.3709	-0.4473	1.5184	0.7538	1.2708	3.1796	-1.0210	-0.5521	-1.9532	-0.8544	2.4046	2.0150	-0.6593	-1.6124	0.3530	1.3636	2.2197	-0.0047	2.7612	0.7888	-0.1210	-0.2304	-0.9172	-1.5104	2.1007	1.4146	0.3703	-0.4977	1.4834	0.7650	1.3555	3.3026	-1.1257	-0.6418	-2.0170	-0.9059	2.5176	2.0708	-0.6910	-1.6986	0.3657	1.4044	2.3073	-0.0051	2.8582	0.7523	-0.1569	-0.2963	-1.0048	-1.6058	
