Arquivo: c:\arq\medidas\BBA_0603_073413\BBA_AMP05B_H.dat
Data: 0603	 Hora:  0805
Comentário: 
NomeParametro	 ValorParametro
Nmedias	5
PausaCorretora	3000
PausaShunt	2000
PausaLeitura	500
NumCiclos	3
 NPassosCor	9
DeltaShunt	1.50
TetaIni	-0.20
TetaFim	0.20
I[mA]	 121.3
ACH11B	DeltaPos^2	AMP05B	AMP01B_0	AMP02A_0	AMP02B_0	AMP03A_0	AMP03B_0	AMP04A_0	AMP04B_0	AMP05A_0	AMP05B_0	AMP06A_0	AMP06B_0	AMP07A_0	AMP07B_0	AMP08A_0	AMP08B_0	AMP09A_0	AMP09B_0	AMP10A_0	AMP10B_0	AMP11A_0	AMU11A_0	AMU11B_0	AMP11B_0	AMP12A_0	AMP12B_0	AMP01A_0	AMP01B_1	AMP02A_1	AMP02B_1	AMP03A_1	AMP03B_1	AMP04A_1	AMP04B_1	AMP05A_1	AMP05B_1	AMP06A_1	AMP06B_1	AMP07A_1	AMP07B_1	AMP08A_1	AMP08B_1	AMP09A_1	AMP09B_1	AMP10A_1	AMP10B_1	AMP11A_1	AMU11A_1	AMU11B_1	AMP11B_1	AMP12A_1	AMP12B_1	AMP01A_1	
-0.2000	 3.42117576916594E-0003	1.6999	-1.0227	-0.2137	-2.2736	1.7666	0.7355	-1.3097	-1.1539	0.2309	1.6999	0.0087	-1.7308	0.4796	0.9394	-0.3179	-0.2399	-0.8745	-0.1847	0.6252	-0.4457	-0.0092	-1.6160	-1.2188	-1.9529	-0.6095	-0.5452	0.4405	-0.9372	-0.2107	-2.2998	1.7289	0.7283	-1.2657	-1.1372	0.1202	1.6098	0.0155	-1.6986	0.4941	0.9238	-0.3490	-0.2453	-0.7881	-0.1175	0.5772	-0.4850	0.0270	-1.5082	-1.1064	-1.9408	-0.6454	-0.5947	0.5012	
-0.1500	 2.00558477784669E-0003	1.1915	-1.0427	-0.0231	-2.2002	1.2843	0.3231	-1.0683	-0.9316	-0.2485	1.1915	0.1690	-1.5012	0.2440	0.5864	-0.3303	-0.1254	-0.7099	-0.1552	0.4476	-0.5167	-0.0066	-1.1594	-0.8006	-2.0665	-0.5990	-0.6723	0.2757	-0.9779	-0.0205	-2.2201	1.2552	0.3172	-1.0348	-0.9185	-0.3332	1.1220	0.1741	-1.4763	0.2554	0.5750	-0.3540	-0.1298	-0.6431	-0.1035	0.4104	-0.5466	-0.0008	-1.0771	-0.7146	-2.0575	-0.6264	-0.7099	0.3217	
-0.1000	 9.61375222080897E-0004	0.6746	-1.0654	0.1706	-2.1253	0.7935	-0.0959	-0.8237	-0.7062	-0.7340	0.6746	0.3316	-1.2687	0.0048	0.2286	-0.3425	-0.0098	-0.5447	-0.1268	0.2685	-0.5879	-0.0076	-0.6970	-0.3785	-2.1820	-0.5877	-0.7999	0.1073	-1.0204	0.1722	-2.1390	0.7733	-0.1002	-0.8004	-0.6973	-0.7925	0.6266	0.3350	-1.2516	0.0129	0.2207	-0.3587	-0.0127	-0.4987	-0.0910	0.2425	-0.6088	-0.0066	-0.6400	-0.3189	-2.1755	-0.6068	-0.8260	0.1392	
-0.0500	 2.87435089071924E-0004	0.1550	-1.0905	0.3642	-2.0492	0.2997	-0.5176	-0.5789	-0.4800	-1.2209	0.1550	0.4946	-1.0355	-0.2365	-0.1307	-0.3537	0.1072	-0.3809	-0.1001	0.0889	-0.6585	0.0081	-0.2343	0.0427	-2.2982	-0.5754	-0.9271	-0.0625	-1.0662	0.3653	-2.0567	0.2884	-0.5200	-0.5660	-0.4749	-1.2529	0.1284	0.4964	-1.0261	-0.2315	-0.1349	-0.3628	0.1052	-0.3554	-0.0802	0.0748	-0.6700	-0.0309	-0.2033	0.0752	-2.2949	-0.5853	-0.9412	-0.0456	
0.0000	 8.70366677519240E-0006	-0.3676	-1.1191	0.5593	-1.9712	-0.1984	-0.9422	-0.3324	-0.2524	-1.7082	-0.3676	0.6584	-0.8006	-0.4795	-0.4928	-0.3635	0.2248	-0.2190	-0.0755	-0.0899	-0.7277	-0.0041	0.2266	0.4611	-2.4156	-0.5609	-1.0524	-0.2369	-1.1149	0.5595	-1.9724	-0.2004	-0.9427	-0.3304	-0.2519	-1.7138	-0.3721	0.6584	-0.7991	-0.4783	-0.4933	-0.3650	0.2244	-0.2145	-0.0719	-0.0923	-0.7297	-0.0184	0.2320	0.4667	-2.4150	-0.5628	-1.0550	-0.2337	
0.0500	 1.19792928224166E-0004	-0.8894	-1.1497	0.7544	-1.8925	-0.6957	-1.3665	-0.0867	-0.0255	-2.1937	-0.8894	0.8223	-0.5661	-0.7246	-0.8563	-0.3724	0.3432	-0.0597	-0.0539	-0.2685	-0.7958	-0.0106	0.6861	0.8770	-2.5331	-0.5457	-1.1767	-0.4127	-1.1657	0.7537	-1.8876	-0.6885	-1.3650	-0.0949	-0.0284	-2.1734	-0.8725	0.8207	-0.5721	-0.7275	-0.8529	-0.3664	0.3442	-0.0758	-0.0660	-0.2588	-0.7885	-0.0070	0.6658	0.8557	-2.5355	-0.5391	-1.1675	-0.4239	
0.1000	 6.17579125468946E-0004	-1.4115	-1.1834	0.9510	-1.8117	-1.1943	-1.7921	0.1597	0.2030	-2.6780	-1.4115	0.9870	-0.3304	-0.9717	-1.2206	-0.3800	0.4628	0.0984	-0.0336	-0.4462	-0.8629	-0.0037	1.1426	1.2891	-2.6522	-0.5290	-1.2996	-0.5918	-1.2190	0.9495	-1.8008	-1.1780	-1.7886	0.1410	0.1954	-2.6318	-1.3727	0.9840	-0.3442	-0.9778	-1.2139	-0.3667	0.4652	0.0609	-0.0623	-0.4246	-0.8461	-0.0065	1.0969	1.2414	-2.6566	-0.5137	-1.2785	-0.6168	
0.1500	 1.48946365623116E-0003	-1.9305	-1.2207	1.1475	-1.7298	-1.6915	-2.2171	0.4052	0.4301	-3.1585	-1.9305	1.1523	-0.0949	-1.2203	-1.5852	-0.3861	0.5830	0.2525	-0.0168	-0.6220	-0.9284	-0.0027	1.5935	1.6958	-2.7716	-0.5102	-1.4199	-0.7732	-1.2768	1.1452	-1.7124	-1.6660	-2.2118	0.3767	0.4191	-3.0870	-1.8707	1.1476	-0.1164	-1.2293	-1.5747	-0.3652	0.5866	0.1951	-0.0611	-0.5888	-0.9020	-0.0146	1.5222	1.6215	-2.7788	-0.4862	-1.3874	-0.8129	
0.2000	 2.72860074041594E-0003	-2.4459	-1.2610	1.3439	-1.6459	-2.1865	-2.6413	0.6507	0.6579	-3.6352	-2.4459	1.3175	0.1402	-1.4693	-1.9495	-0.3906	0.7041	0.4043	-0.0019	-0.7963	-0.9923	-0.0008	2.0395	2.0976	-2.8918	-0.4900	-1.5388	-0.9572	-1.3372	1.3408	-1.6226	-2.1521	-2.6335	0.6116	0.6431	-3.5387	-2.3653	1.3112	0.1110	-1.4818	-1.9349	-0.3626	0.7085	0.3255	-0.0624	-0.7514	-0.9564	0.0103	1.9436	1.9976	-2.9015	-0.4578	-1.4944	-1.0110	
