Arquivo: c:\arq\medidas\BBA_0603_073413\BBA_AMP02A_V.dat
Data: 0603	 Hora:  0740
Comentário: 
NomeParametro	 ValorParametro
Nmedias	5
PausaCorretora	3000
PausaShunt	2000
PausaLeitura	500
NumCiclos	3
 NPassosCor	9
DeltaShunt	3.00
TetaIni	-0.20
TetaFim	0.20
I[mA]	 123.4
ACV07B	DeltaPos^2	AMP02A	AMP01B_0	AMP02A_0	AMP02B_0	AMP03A_0	AMP03B_0	AMP04A_0	AMP04B_0	AMP05A_0	AMP05B_0	AMP06A_0	AMP06B_0	AMP07A_0	AMP07B_0	AMP08A_0	AMP08B_0	AMP09A_0	AMP09B_0	AMP10A_0	AMP10B_0	AMP11A_0	AMU11A_0	AMU11B_0	AMP11B_0	AMP12A_0	AMP12B_0	AMP01A_0	AMP01B_1	AMP02A_1	AMP02B_1	AMP03A_1	AMP03B_1	AMP04A_1	AMP04B_1	AMP05A_1	AMP05B_1	AMP06A_1	AMP06B_1	AMP07A_1	AMP07B_1	AMP08A_1	AMP08B_1	AMP09A_1	AMP09B_1	AMP10A_1	AMP10B_1	AMP11A_1	AMU11A_1	AMU11B_1	AMP11B_1	AMP12A_1	AMP12B_1	AMP01A_1	
-0.2000	 1.43833536330505E-0003	-1.4618	-2.4606	-1.4618	0.1568	0.9661	2.9286	0.5731	-1.5624	-1.1787	2.3750	2.4364	0.3713	1.1383	-1.6872	-0.5131	-1.0650	-0.6957	1.9324	1.4476	-0.1569	-0.0760	-0.5151	1.7932	1.7117	1.8531	2.1369	1.9342	-2.5208	-1.4990	0.1200	0.9275	2.9786	0.6088	-1.5692	-1.2117	2.3686	2.4492	0.4138	1.2003	-1.7426	-0.5566	-1.0896	-0.7082	1.9808	1.4681	-0.1826	-0.0900	-0.5583	1.8061	1.8154	1.8804	2.1785	1.9815	
-0.1500	 9.34392353445086E-0004	-1.1315	-1.9580	-1.1315	0.2095	0.8466	2.7374	0.5607	-1.2509	-0.6817	2.0132	2.1055	0.0922	0.8819	-1.2090	-0.1563	-0.8380	-0.5521	1.5047	1.2554	0.0341	-0.0588	-0.1644	1.7168	1.4282	1.6422	1.7851	1.5198	-2.0067	-1.1618	0.1807	0.8168	2.7777	0.5887	-1.2574	-0.7091	2.0095	2.1168	0.1267	0.9323	-1.2541	-0.1911	-0.8578	-0.5610	1.5430	1.2718	0.0135	-0.0757	-0.1995	1.7275	1.5101	1.6645	1.8191	1.5581	
-0.1000	 4.66784951284988E-0004	-0.7836	-1.4274	-0.7836	0.2656	0.7224	2.5361	0.5467	-0.9242	-0.1588	1.6332	1.7569	-0.2022	0.6111	-0.7040	0.2187	-0.6012	-0.4026	1.0545	1.0541	0.2359	-0.0934	0.2041	1.6353	1.1276	1.4182	1.4144	1.0830	-1.4621	-0.8053	0.2452	0.7022	2.5648	0.5660	-0.9296	-0.1786	1.6311	1.7652	-0.1777	0.6460	-0.7363	0.1943	-0.6147	-0.4085	1.0814	1.0656	0.2212	-0.0957	0.1793	1.6434	1.1851	1.4347	1.4387	1.1097	
-0.0500	 1.52888510784668E-0004	-0.4335	-0.8930	-0.4335	0.3228	0.5995	2.3315	0.5315	-0.5959	0.3665	1.2524	1.4062	-0.4996	0.3361	-0.1941	0.5960	-0.3637	-0.2539	0.6020	0.8530	0.4390	-0.0801	0.5752	1.5528	0.8225	1.1931	1.0421	0.6433	-0.9129	-0.4460	0.3115	0.5886	2.3483	0.5425	-0.5995	0.3545	1.2520	1.4120	-0.4855	0.3558	-0.2126	0.5820	-0.3710	-0.2566	0.6170	0.8591	0.4305	-0.1073	0.5608	1.5579	0.8548	1.2027	1.0563	0.6586	
0.0000	 7.87769201460384E-0006	-0.0793	-0.3505	-0.0793	0.3816	0.4756	2.1225	0.5160	-0.2638	0.8954	0.8667	1.0515	-0.8014	0.0562	0.3217	0.9784	-0.1242	-0.1048	0.1445	0.6501	0.6449	-0.0591	0.9505	1.4680	0.5120	0.9631	0.6635	0.1982	-0.3548	-0.0822	0.3793	0.4746	2.1271	0.5173	-0.2658	0.8920	0.8678	1.0534	-0.7981	0.0598	0.3174	0.9755	-0.1249	-0.1037	0.1472	0.6504	0.6426	-0.0953	0.9471	1.4696	0.5177	0.9657	0.6669	0.2019	
0.0500	 5.05929935386799E-0005	0.2778	0.1941	0.2778	0.4411	0.3518	1.9108	0.4989	0.0701	1.4281	0.4798	0.6929	-1.1057	-0.2274	0.8413	1.3621	0.1174	0.0449	-0.3161	0.4463	0.8532	-0.0878	1.3268	1.3820	0.1971	0.7310	0.2821	-0.2491	0.2050	0.2844	0.4479	0.3604	1.9033	0.4920	0.0701	1.4332	0.4825	0.6919	-1.1133	-0.2395	0.8513	1.3707	0.1228	0.0494	-0.3263	0.4416	0.8581	-0.1039	1.3346	1.3806	0.1766	0.7264	0.2745	-0.2579	
0.1000	 2.83677223619526E-0004	0.6352	0.7403	0.6352	0.5012	0.2278	1.6974	0.4821	0.4046	1.9596	0.0901	0.3337	-1.4102	-0.5115	1.3608	1.7470	0.3599	0.1966	-0.7789	0.2410	1.0621	-0.0857	1.7043	1.2969	-0.1198	0.4974	-0.1013	-0.6999	0.7666	0.6510	0.5173	0.2463	1.6778	0.4659	0.4062	1.9736	0.0943	0.3293	-1.4285	-0.5402	1.3861	1.7666	0.3719	0.2042	-0.8015	0.2308	1.0734	-0.0816	1.7232	1.2922	-0.1668	0.4862	-0.1195	-0.7206	
0.1500	 6.84877728250468E-0004	0.9967	1.2920	0.9967	0.5623	0.1020	1.4810	0.4655	0.7432	2.4941	-0.3052	-0.0303	-1.7170	-0.7978	1.8840	2.1341	0.6057	0.3502	-1.2465	0.0321	1.2728	-0.0911	2.0850	1.2103	-0.4400	0.2613	-0.4890	-1.1547	1.3328	1.0217	0.5875	0.1305	1.4485	0.4408	0.7467	2.5152	-0.2989	-0.0377	-1.7457	-0.8419	1.9228	2.1642	0.6241	0.3619	-1.2814	0.0168	1.2900	-0.0755	2.1145	1.2023	-0.5135	0.2432	-0.5171	-1.1866	
0.2000	 1.25712735603257E-0003	1.3572	1.8406	1.3572	0.6231	-0.0244	1.2641	0.4493	1.0814	3.0237	-0.7003	-0.3949	-2.0217	-1.0816	2.4028	2.5195	0.8526	0.5065	-1.7139	-0.1777	1.4823	-0.0557	2.4625	1.1243	-0.7599	0.0256	-0.8758	-1.6077	1.8960	1.3913	0.6575	0.0141	1.2198	0.4155	1.0863	3.0521	-0.6921	-0.4051	-2.0606	-1.1416	2.4546	2.5599	0.8776	0.5215	-1.7610	-0.1984	1.5059	-0.0900	2.5022	1.1132	-0.8596	0.0009	-0.9142	-1.6512	
