Arquivo: c:\arq\medidas\BBA_2003_073142\BBA_AMU11B_H.dat
Data: 2003	 Hora:  0837
Comentário: 
NomeParametro	 ValorParametro
Nmedias	5
PausaCorretora	3000
PausaShunt	2000
PausaLeitura	500
NumCiclos	3
 NPassosCor	7
DeltaShunt	3.00
TetaIni	-0.20
TetaFim	0.20
I[mA]	  28.9
ACH05B	DeltaPos^2	AMU11B	AMP01B_0	AMP02A_0	AMP02B_0	AMP03A_0	AMP03B_0	AMP03C_0	AMP04A_0	AMP04B_0	AMP05A_0	AMP05B_0	AMP06A_0	AMP06B_0	AMP07A_0	AMP07B_0	AMP08A_0	AMP08B_0	AMP09A_0	AMP09B_0	AMP10A_0	AMP10B_0	AMU11A_0	AMU11B_0	AMP12A_0	AMP12B_0	AMP01A_0	AMP01B_1	AMP02A_1	AMP02B_1	AMP03A_1	AMP03B_1	AMP03C_1	AMP04A_1	AMP04B_1	AMP05A_1	AMP05B_1	AMP06A_1	AMP06B_1	AMP07A_1	AMP07B_1	AMP08A_1	AMP08B_1	AMP09A_1	AMP09B_1	AMP10A_1	AMP10B_1	AMU11A_1	AMU11B_1	AMP12A_1	AMP12B_1	AMP01A_1	
-0.2000	 7.76447741193671E-0003	2.6065	0.5947	0.5005	-2.5577	-0.7488	-0.9404	-2.1949	0.3668	-0.0904	-3.5241	-1.9064	0.6767	-0.2796	-0.0414	-0.6368	-1.0260	0.0291	1.4567	1.2473	-1.0818	-1.5333	2.3037	2.6065	-1.4069	-2.0506	0.9821	0.6259	0.4310	-2.5921	-0.5829	-0.7906	-2.1500	0.2884	-0.1680	-3.3769	-1.7422	0.6276	-0.3534	0.0281	-0.5293	-1.0213	-0.0056	1.4043	1.2371	-1.0251	-1.5110	2.1639	2.4814	-1.4224	-2.0181	1.0586	
-0.1333	 3.40784683095654E-0003	1.9909	0.0725	0.5173	-2.3837	-0.6113	-0.9735	-2.2867	0.1460	-0.1501	-2.9502	-1.4412	0.6484	-0.4479	-0.1326	-0.5659	-0.8530	0.0647	0.9848	0.8849	-0.8002	-1.3149	1.7018	1.9909	-1.1679	-1.7653	0.5925	0.0923	0.4718	-2.4065	-0.5019	-0.8750	-2.2574	0.0941	-0.2016	-2.8520	-1.3324	0.6160	-0.4965	-0.0864	-0.4946	-0.8498	0.0416	0.9500	0.8783	-0.7631	-1.3003	1.6084	1.9071	-1.1778	-1.7439	0.6428	
-0.0667	 6.43914346226263E-0004	1.3693	-0.4543	0.5360	-2.2073	-0.4761	-1.0097	-2.3796	-0.0751	-0.2086	-2.3706	-0.9752	0.6204	-0.6155	-0.2233	-0.4948	-0.6803	0.1005	0.5117	0.5222	-0.5192	-1.0968	1.0948	1.3693	-0.9270	-1.4788	0.1973	-0.4515	0.5161	-2.2181	-0.4314	-0.9689	-2.3747	-0.0980	-0.2309	-2.3340	-0.9325	0.6081	-0.6373	-0.2107	-0.4692	-0.6766	0.0918	0.4896	0.5132	-0.4994	-1.0886	1.0444	1.3233	-0.9305	-1.4675	0.2162	
0.0000	 4.04311053718886E-0006	0.7334	-0.9928	0.5561	-2.0262	-0.3411	-1.0493	-2.4746	-0.2994	-0.2670	-1.7767	-0.5016	0.5921	-0.7856	-0.3169	-0.4240	-0.5047	0.1369	0.0296	0.1527	-0.2336	-0.8748	0.4728	0.7334	-0.6804	-1.1870	-0.2086	-0.9937	0.5580	-2.0252	-0.3451	-1.0529	-2.4756	-0.2973	-0.2649	-1.7800	-0.5056	0.5934	-0.7839	-0.3183	-0.4262	-0.5047	0.1378	0.0299	0.1526	-0.2346	-0.8750	0.4754	0.7357	-0.6800	-1.1875	-0.2108	
0.0667	 1.32820090150110E-0003	0.0952	-1.5309	0.5781	-1.8438	-0.2090	-1.0920	-2.5710	-0.5224	-0.3237	-1.1824	-0.0311	0.5650	-0.9541	-0.4113	-0.3546	-0.3296	0.1737	-0.4509	-0.2168	0.0504	-0.6535	-0.1499	0.0952	-0.4335	-0.8957	-0.6187	-1.5543	0.6064	-1.8302	-0.2794	-1.1551	-2.5994	-0.4911	-0.2923	-1.2472	-0.1012	0.5872	-0.9255	-0.4487	-0.4040	-0.3284	0.1895	-0.4407	-0.2221	0.0329	-0.6596	-0.1058	0.1333	-0.4254	-0.9061	-0.6562	
0.1333	 4.38902296970482E-0003	-0.5468	-2.0708	0.6012	-1.6592	-0.0789	-1.1372	-2.6685	-0.7458	-0.3794	-0.5850	0.4397	0.5384	-1.1224	-0.5073	-0.2870	-0.1540	0.2117	-0.9339	-0.5888	0.3348	-0.4312	-0.7765	-0.5468	-0.1844	-0.6025	-1.0342	-2.1058	0.6536	-1.6337	-0.2050	-1.2506	-2.7118	-0.6875	-0.3213	-0.7004	0.3138	0.5775	-1.0687	-0.5682	-0.3729	-0.1539	0.2394	-0.9082	-0.5922	0.2984	-0.4447	-0.6838	-0.4652	-0.1712	-0.6240	-1.0989	
0.2000	 8.80619102001463E-0003	-1.1867	-2.6069	0.6258	-1.4739	0.0483	-1.1848	-2.7664	-0.9670	-0.4337	0.0091	0.9045	0.5130	-1.2888	-0.6049	-0.2220	0.0218	0.2501	-1.4146	-0.9603	0.6180	-0.2099	-1.3997	-1.1867	0.0648	-0.3101	-1.4505	-2.6384	0.6990	-1.4380	-0.1275	-1.3412	-2.8130	-0.8824	-0.3512	-0.1526	0.7285	0.5662	-1.2101	-0.6809	-0.3378	0.0182	0.2881	-1.3633	-0.9532	0.5601	-0.2318	-1.2509	-1.0530	0.0806	-0.3443	-1.5301	
