Arquivo: c:\arq\medidas\BBA_2003_073142\BBA_AMP10B_H.dat
Data: 2003	 Hora:  0830
Comentário: 
NomeParametro	 ValorParametro
Nmedias	5
PausaCorretora	3000
PausaShunt	2000
PausaLeitura	500
NumCiclos	3
 NPassosCor	7
DeltaShunt	3.00
TetaIni	-0.20
TetaFim	0.20
I[mA]	  28.9
ACH05A	DeltaPos^2	AMP10B	AMP01B_0	AMP02A_0	AMP02B_0	AMP03A_0	AMP03B_0	AMP03C_0	AMP04A_0	AMP04B_0	AMP05A_0	AMP05B_0	AMP06A_0	AMP06B_0	AMP07A_0	AMP07B_0	AMP08A_0	AMP08B_0	AMP09A_0	AMP09B_0	AMP10A_0	AMP10B_0	AMU11A_0	AMU11B_0	AMP12A_0	AMP12B_0	AMP01A_0	AMP01B_1	AMP02A_1	AMP02B_1	AMP03A_1	AMP03B_1	AMP03C_1	AMP04A_1	AMP04B_1	AMP05A_1	AMP05B_1	AMP06A_1	AMP06B_1	AMP07A_1	AMP07B_1	AMP08A_1	AMP08B_1	AMP09A_1	AMP09B_1	AMP10A_1	AMP10B_1	AMU11A_1	AMU11B_1	AMP12A_1	AMP12B_1	AMP01A_1	
-0.2000	 1.89709305924058E-0003	-1.3518	0.9009	0.3146	-2.7172	-0.3683	-0.5309	-2.0359	0.2635	-0.2638	-3.3771	-2.3991	0.9938	0.0091	-0.6920	-1.3134	-0.7870	0.3427	1.0870	0.7418	-1.0527	-1.3518	2.3809	2.5768	-1.5439	-2.0831	1.3445	0.9776	0.2626	-2.7669	-0.2916	-0.4423	-2.0038	0.2283	-0.3130	-3.3613	-2.3648	0.9847	-0.0195	-0.7164	-1.3211	-0.7805	0.3385	1.0487	0.7067	-1.0427	-1.3406	2.4100	2.5859	-1.5895	-2.1060	1.4366	
-0.1333	 1.17059114510176E-0003	-1.1913	0.2800	0.3937	-2.4899	-0.3580	-0.7003	-2.1811	0.0780	-0.2655	-2.8549	-1.7814	0.8643	-0.2503	-0.5744	-1.0276	-0.6905	0.2783	0.7338	0.5414	-0.7802	-1.1913	1.7545	1.9711	-1.2590	-1.7865	0.8375	0.3365	0.3528	-2.5288	-0.2963	-0.6306	-2.1560	0.0490	-0.3049	-2.8371	-1.7487	0.8562	-0.2743	-0.5911	-1.0295	-0.6857	0.2740	0.7018	0.5133	-0.7720	-1.1826	1.7746	1.9754	-1.2948	-1.8042	0.9072	
-0.0667	 6.80789923743375E-0004	-1.0291	-0.3583	0.4765	-2.2560	-0.3507	-0.8770	-2.3300	-0.1102	-0.2654	-2.3178	-1.1484	0.7315	-0.5140	-0.4510	-0.7329	-0.5942	0.2111	0.3752	0.3398	-0.5034	-1.0291	1.1100	1.3483	-0.9669	-1.4837	0.3114	-0.3173	0.4450	-2.2854	-0.3031	-0.8237	-2.3108	-0.1327	-0.2955	-2.3010	-1.1198	0.7247	-0.5331	-0.4617	-0.7314	-0.5911	0.2072	0.3516	0.3194	-0.4980	-1.0233	1.1251	1.3513	-0.9940	-1.4975	0.3637	
0.0000	 3.49421913315391E-0004	-0.8663	-1.0060	0.5609	-2.0174	-0.3463	-1.0581	-2.4800	-0.2987	-0.2638	-1.7726	-0.5090	0.5969	-0.7794	-0.3255	-0.4347	-0.4974	0.1431	0.0146	0.1379	-0.2258	-0.8663	0.4552	0.7168	-0.6710	-1.1781	-0.2245	-0.9775	0.5389	-2.0390	-0.3120	-1.0199	-2.4665	-0.3146	-0.2850	-1.7585	-0.4857	0.5921	-0.7931	-0.3314	-0.4311	-0.4960	0.1399	-0.0001	0.1255	-0.2233	-0.8635	0.4674	0.7206	-0.6907	-1.1887	-0.1872	
0.0667	 1.28803333748916E-0004	-0.7032	-1.6553	0.6474	-1.7770	-0.3445	-1.2417	-2.6315	-0.4868	-0.2610	-1.2239	0.1329	0.4617	-1.0451	-0.2005	-0.1358	-0.4007	0.0745	-0.3470	-0.0652	0.0522	-0.7032	-0.2046	0.0792	-0.3729	-0.8713	-0.7678	-1.6400	0.6344	-1.7899	-0.3236	-1.2183	-2.6234	-0.4963	-0.2731	-1.2130	0.1496	0.4589	-1.0535	-0.2021	-0.1305	-0.4005	0.0723	-0.3527	-0.0702	0.0518	-0.7030	-0.1954	0.0834	-0.3850	-0.8787	-0.7456	
0.1333	 1.06245611706261E-0005	-0.5400	-2.3045	0.7336	-1.5359	-0.3428	-1.4259	-2.7829	-0.6762	-0.2579	-0.6705	0.7778	0.3257	-1.3118	-0.0750	0.1655	-0.3041	0.0058	-0.7096	-0.2688	0.3294	-0.5400	-0.8657	-0.5604	-0.0747	-0.5646	-1.3132	-2.3025	0.7313	-1.5386	-0.3374	-1.4199	-2.7809	-0.6779	-0.2604	-0.6654	0.7846	0.3256	-1.3136	-0.0732	0.1699	-0.3047	0.0052	-0.7083	-0.2676	0.3274	-0.5416	-0.8618	-0.5574	-0.0776	-0.5668	-1.3083	
0.2000	 4.16465012053701E-0005	-0.3775	-2.9507	0.8209	-1.2938	-0.3430	-1.6121	-2.9345	-0.8650	-0.2545	-0.1159	1.4207	0.1899	-1.5788	0.0506	0.4673	-0.2076	-0.0630	-1.0733	-0.4741	0.6058	-0.3775	-1.5266	-1.2017	0.2241	-0.2577	-1.8614	-2.9594	0.8293	-1.2862	-0.3543	-1.6237	-2.9387	-0.8576	-0.2458	-0.1201	1.4144	0.1936	-1.5728	0.0527	0.4678	-0.2077	-0.0607	-1.0645	-0.4671	0.6027	-0.3795	-1.5267	-1.1991	0.2306	-0.2544	-1.8719	
