Arquivo: c:\arq\medidas\BBA_2003_073142\BBA_AMP09A_H.dat
Data: 2003	 Hora:  0821
Comentário: 
NomeParametro	 ValorParametro
Nmedias	5
PausaCorretora	3000
PausaShunt	2000
PausaLeitura	500
NumCiclos	3
 NPassosCor	7
DeltaShunt	3.00
TetaIni	-0.20
TetaFim	0.20
I[mA]	  29.0
ACH03B	DeltaPos^2	AMP09A	AMP01B_0	AMP02A_0	AMP02B_0	AMP03A_0	AMP03B_0	AMP03C_0	AMP04A_0	AMP04B_0	AMP05A_0	AMP05B_0	AMP06A_0	AMP06B_0	AMP07A_0	AMP07B_0	AMP08A_0	AMP08B_0	AMP09A_0	AMP09B_0	AMP10A_0	AMP10B_0	AMU11A_0	AMU11B_0	AMP12A_0	AMP12B_0	AMP01A_0	AMP01B_1	AMP02A_1	AMP02B_1	AMP03A_1	AMP03B_1	AMP03C_1	AMP04A_1	AMP04B_1	AMP05A_1	AMP05B_1	AMP06A_1	AMP06B_1	AMP07A_1	AMP07B_1	AMP08A_1	AMP08B_1	AMP09A_1	AMP09B_1	AMP10A_1	AMP10B_1	AMU11A_1	AMU11B_1	AMP12A_1	AMP12B_1	AMP01A_1	
-0.2000	 1.58723779113095E-0002	2.1878	-1.0134	1.2759	-1.7780	-2.2272	-2.6423	-3.2233	-0.3451	0.2524	-1.1263	-0.4347	-0.1712	-1.0843	1.6219	1.1594	-1.5759	-0.7774	2.1878	2.3859	-0.9912	-1.8980	1.6657	2.3345	-0.6842	-1.7350	-0.8040	-0.8602	1.1629	-1.8672	-1.9904	-2.4004	-3.1370	-0.4291	0.1404	-0.9958	-0.2548	-0.1802	-1.1476	1.5828	1.1833	-1.5066	-0.7608	1.9979	2.1481	-0.9618	-1.8069	1.6648	2.2754	-0.7550	-1.7389	-0.6037	
-0.1333	 7.62569808538105E-0003	1.4690	-1.0393	1.0450	-1.8468	-1.6111	-2.1314	-2.9870	-0.3416	0.0818	-1.3054	-0.4228	0.0730	-1.0000	0.9940	0.6579	-1.2197	-0.4804	1.4690	1.6501	-0.7287	-1.5535	1.2425	1.7800	-0.6675	-1.5390	-0.6362	-0.9335	0.9667	-1.9089	-1.4465	-1.9630	-2.9273	-0.3998	0.0040	-1.2158	-0.2989	0.0666	-1.0436	0.9677	0.6740	-1.1723	-0.4693	1.3373	1.4844	-0.7094	-1.4910	1.2425	1.7396	-0.7164	-1.5419	-0.4973	
-0.0667	 2.27325220441465E-0003	0.7361	-1.0708	0.8131	-1.9144	-0.9885	-1.6160	-2.7493	-0.3361	-0.0890	-1.4906	-0.4158	0.3200	-0.9127	0.3566	0.1467	-0.8604	-0.1804	0.7361	0.8998	-0.4636	-1.2054	0.8102	1.2148	-0.6487	-1.3398	-0.4714	-1.0127	0.7704	-1.9479	-0.8987	-1.5238	-2.7168	-0.3679	-0.1312	-1.4418	-0.3483	0.3164	-0.9364	0.3424	0.1556	-0.8343	-0.1741	0.6643	0.8088	-0.4529	-1.1711	0.8102	1.1929	-0.6750	-1.3412	-0.3960	
0.0000	 7.43702384564699E-0005	0.0064	-1.1072	0.5853	-1.9779	-0.3740	-1.1094	-2.5143	-0.3281	-0.2549	-1.6778	-0.4144	0.5658	-0.8241	-0.2765	-0.3627	-0.5038	0.1173	0.0064	0.1528	-0.1999	-0.8601	0.3769	0.6489	-0.6268	-1.1404	-0.3142	-1.0966	0.5779	-1.9838	-0.3579	-1.0925	-2.5092	-0.3339	-0.2625	-1.6687	-0.4016	0.5646	-0.8285	-0.2781	-0.3605	-0.4993	0.1182	-0.0061	0.1363	-0.1980	-0.8536	0.3770	0.6451	-0.6315	-1.1408	-0.3006	
0.0667	 9.17582990945508E-0004	-0.7174	-1.1493	0.3620	-2.0384	0.2316	-0.6110	-2.2831	-0.3175	-0.4170	-1.8668	-0.4173	0.8093	-0.7341	-0.9040	-0.8700	-0.1506	0.4124	-0.7174	-0.5884	0.0624	-0.5174	-0.0568	0.0833	-0.6024	-0.9406	-0.1640	-1.1856	0.3894	-2.0165	0.1743	-0.6695	-2.3051	-0.2983	-0.3904	-1.8961	-0.4589	0.8107	-0.7193	-0.8934	-0.8743	-0.1671	0.4079	-0.6705	-0.5309	0.0552	-0.5390	-0.0564	0.0976	-0.5851	-0.9401	-0.2126	
0.1333	 4.61151432133151E-0003	-1.4395	-1.1987	0.1426	-2.0938	0.8283	-0.1213	-2.0535	-0.3041	-0.5751	-2.0582	-0.4258	1.0526	-0.6417	-1.5265	-1.3764	0.2020	0.7064	-1.4395	-1.3263	0.3257	-0.1744	-0.4962	-0.4860	-0.5733	-0.7381	-0.0236	-1.2802	0.2040	-2.0464	0.7014	-0.2514	-2.1018	-0.2601	-0.5146	-2.1264	-0.5208	1.0564	-0.6086	-1.5054	-1.3883	0.1642	0.6970	-1.3340	-1.1960	0.3093	-0.2241	-0.4931	-0.4520	-0.5359	-0.7374	-0.1302	
0.2000	 1.07917262551900E-0002	-2.1548	-1.2563	-0.0740	-2.1449	1.4147	0.3590	-1.8261	-0.2879	-0.7296	-2.2514	-0.4394	1.2952	-0.5470	-2.1421	-1.8799	0.5530	0.9994	-2.1548	-2.0565	0.5904	0.1674	-0.9390	-1.0570	-0.5400	-0.5321	0.1076	-1.3810	0.0204	-2.0730	1.2223	0.1604	-1.9000	-0.2198	-0.6365	-2.3584	-0.5865	1.3018	-0.4957	-2.1139	-1.9011	0.4942	0.9851	-1.9946	-1.8575	0.5638	0.0900	-0.9335	-1.0043	-0.4835	-0.5328	-0.0548	
