Arquivo: c:\arq\medidas\BBA_2003_073142\BBA_AMP02A_H.dat
Data: 2003	 Hora:  0735
Comentário: 
NomeParametro	 ValorParametro
Nmedias	5
PausaCorretora	3000
PausaShunt	2000
PausaLeitura	500
NumCiclos	3
 NPassosCor	7
DeltaShunt	3.00
TetaIni	-0.20
TetaFim	0.20
I[mA]	 134.0
ACH09B	DeltaPos^2	AMP02A	AMP01B_0	AMP02A_0	AMP02B_0	AMP03A_0	AMP03B_0	AMP03C_0	AMP04A_0	AMP04B_0	AMP05A_0	AMP05B_0	AMP06A_0	AMP06B_0	AMP07A_0	AMP07B_0	AMP08A_0	AMP08B_0	AMP09A_0	AMP09B_0	AMP10A_0	AMP10B_0	AMU11A_0	AMU11B_0	AMP12A_0	AMP12B_0	AMP01A_0	AMP01B_1	AMP02A_1	AMP02B_1	AMP03A_1	AMP03B_1	AMP03C_1	AMP04A_1	AMP04B_1	AMP05A_1	AMP05B_1	AMP06A_1	AMP06B_1	AMP07A_1	AMP07B_1	AMP08A_1	AMP08B_1	AMP09A_1	AMP09B_1	AMP10A_1	AMP10B_1	AMU11A_1	AMU11B_1	AMP12A_1	AMP12B_1	AMP01A_1	
-0.2000	 4.02342548710349E-0004	-0.4578	0.7089	-0.4578	-2.8957	1.7374	1.2183	-1.5835	-0.8173	-1.1979	-1.1678	0.7396	0.9502	-1.0521	-1.6479	-1.1139	0.5678	0.7632	-2.4205	-2.1241	-0.0831	-0.0438	0.8344	0.5390	-1.4231	-1.3317	1.8660	0.7065	-0.4503	-2.8873	1.7190	1.1922	-1.5969	-0.8233	-1.1944	-1.1572	0.7395	0.9306	-1.0626	-1.6138	-1.0859	0.5433	0.7416	-2.3844	-2.0850	-0.1011	-0.0673	0.8523	0.5646	-1.4275	-1.3457	1.8531	
-0.1333	 2.20741047820258E-0005	-0.0949	0.0997	-0.0949	-2.5762	1.0251	0.4367	-1.8903	-0.6180	-0.8615	-1.4042	0.3054	0.8662	-0.9378	-1.2780	-0.9419	0.2562	0.5963	-1.6748	-1.4426	-0.1077	-0.2791	0.6867	0.5715	-1.1448	-1.2531	1.1452	0.0995	-0.0922	-2.5745	1.0205	0.4301	-1.8939	-0.6187	-0.8596	-1.4020	0.3046	0.8612	-0.9395	-1.2701	-0.9361	0.2502	0.5911	-1.6663	-1.4337	-0.1113	-0.2843	0.6908	0.5775	-1.1455	-1.2562	1.1419	
-0.0667	 1.13615899825247E-0004	0.2721	-0.5225	0.2721	-2.2496	0.3008	-0.3566	-2.1998	-0.4162	-0.5207	-1.6428	-0.1343	0.7814	-0.8219	-0.9043	-0.7694	-0.0585	0.4281	-0.9186	-0.7530	-0.1288	-0.5149	0.5310	0.5978	-0.8598	-1.1701	0.4057	-0.5190	0.2688	-2.2561	0.3112	-0.3424	-2.1930	-0.4129	-0.5219	-1.6479	-0.1348	0.7912	-0.8158	-0.9223	-0.7845	-0.0464	0.4394	-0.9382	-0.7740	-0.1198	-0.5028	0.5218	0.5847	-0.8577	-1.1633	0.4137	
0.0000	 6.65142013954406E-0004	0.6390	-1.1500	0.6390	-1.9199	-0.4278	-1.1517	-2.5084	-0.2140	-0.1799	-1.8827	-0.5748	0.6973	-0.7056	-0.5308	-0.5984	-0.3732	0.2600	-0.1621	-0.0638	-0.1471	-0.7489	0.3685	0.6177	-0.5717	-1.0840	-0.3399	-1.1427	0.6300	-1.9346	-0.4031	-1.1176	-2.4918	-0.2056	-0.1829	-1.8966	-0.5758	0.7219	-0.6908	-0.5756	-0.6355	-0.3424	0.2881	-0.2080	-0.1134	-0.1251	-0.7197	0.3471	0.5869	-0.5664	-1.0669	-0.3207	
0.0667	 1.71481675039611E-0003	1.0049	-1.7780	1.0049	-1.5893	-1.1558	-1.9431	-2.8156	-0.0120	0.1596	-2.1256	-1.0165	0.6152	-0.5881	-0.1612	-0.4318	-0.6872	0.0931	0.5906	0.6211	-0.1633	-0.9811	0.2008	0.6322	-0.2829	-0.9956	-1.0892	-1.7679	0.9918	-1.6100	-1.1181	-1.8906	-2.7902	0.0027	0.1557	-2.1480	-1.0187	0.6551	-0.5639	-0.2328	-0.4915	-0.6367	0.1390	0.5164	0.5416	-0.1269	-0.9333	0.1651	0.5813	-0.2729	-0.9666	-1.0602	
0.1333	 3.19488018708311E-0003	1.3683	-2.4028	1.3683	-1.2582	-1.8796	-2.7255	-3.1204	0.1917	0.4976	-2.3718	-1.4584	0.5364	-0.4683	0.2003	-0.2724	-0.9970	-0.0703	1.3330	1.2961	-0.1752	-1.2082	0.0271	0.6387	0.0074	-0.9039	-1.8337	-2.3904	1.3510	-1.2856	-1.8292	-2.6554	-3.0860	0.2122	0.4926	-2.4031	-1.4620	0.5919	-0.4349	0.1025	-0.3540	-0.9281	-0.0068	1.2318	1.1874	-0.1248	-1.1424	-0.0219	0.5692	0.0213	-0.8642	-1.7957	
0.2000	 5.02468307209216E-0003	1.7273	-3.0167	1.7273	-0.9296	-2.5921	-3.4914	-3.4204	0.3952	0.8324	-2.6212	-1.8994	0.4620	-0.3466	0.5510	-0.1227	-1.3012	-0.2283	2.0574	1.9532	-0.1839	-1.4301	-0.1519	0.6381	0.2959	-0.8099	-2.5665	-3.0016	1.7048	-0.9642	-2.5285	-3.4039	-3.3771	0.4209	0.8259	-2.6595	-1.9030	0.5318	-0.3051	0.4280	-0.2250	-1.2134	-0.1484	1.9312	1.8177	-0.1208	-1.3471	-0.2132	0.5505	0.3133	-0.7598	-2.5189	
