Arquivo: c:\arq\medidas\BBA_2003_073142\BBA_AMP01B_V.dat
Data: 2003	 Hora:  0733
Comentário: 
NomeParametro	 ValorParametro
Nmedias	5
PausaCorretora	3000
PausaShunt	2000
PausaLeitura	500
NumCiclos	3
 NPassosCor	7
DeltaShunt	3.00
TetaIni	-0.20
TetaFim	0.20
I[mA]	 134.3
ACV11A	DeltaPos^2	AMP01B	AMP01B_0	AMP02A_0	AMP02B_0	AMP03A_0	AMP03B_0	AMP03C_0	AMP04A_0	AMP04B_0	AMP05A_0	AMP05B_0	AMP06A_0	AMP06B_0	AMP07A_0	AMP07B_0	AMP08A_0	AMP08B_0	AMP09A_0	AMP09B_0	AMP10A_0	AMP10B_0	AMU11A_0	AMU11B_0	AMP12A_0	AMP12B_0	AMP01A_0	AMP01B_1	AMP02A_1	AMP02B_1	AMP03A_1	AMP03B_1	AMP03C_1	AMP04A_1	AMP04B_1	AMP05A_1	AMP05B_1	AMP06A_1	AMP06B_1	AMP07A_1	AMP07B_1	AMP08A_1	AMP08B_1	AMP09A_1	AMP09B_1	AMP10A_1	AMP10B_1	AMU11A_1	AMU11B_1	AMP12A_1	AMP12B_1	AMP01A_1	
-0.2000	 2.05504350087703E-0002	-2.5454	-2.5454	-1.4214	0.3829	1.3035	2.7106	1.2315	0.3297	-1.7278	-1.2967	2.6790	2.5820	0.2550	0.8535	-1.6137	0.0703	0.5358	1.5151	-0.2532	-0.1632	-0.8794	-0.7304	2.0863	2.1549	2.1560	1.8213	-2.7349	-1.5720	0.2856	1.2370	2.8640	1.5360	0.4143	-1.8123	-1.4788	2.7431	2.6812	0.4131	1.0527	-1.8447	-0.0836	0.4994	1.5515	-0.1415	-0.1450	-1.0129	-0.9065	2.1916	2.2957	2.2791	1.9289	
-0.1333	 1.02304582050088E-0002	-1.8709	-1.8709	-1.0064	0.3817	1.0464	2.5278	1.0303	0.3879	-1.2748	-0.6182	2.1204	2.1102	-0.0698	0.6107	-1.0183	0.3524	0.3368	1.0232	-0.1364	0.0835	-0.4118	-0.2116	1.8976	1.7895	1.6965	1.3202	-2.0060	-1.1129	0.3147	1.0011	2.6349	1.2421	0.4461	-1.3356	-0.7480	2.1675	2.1816	0.0419	0.7502	-1.1821	0.2440	0.3115	1.0499	-0.0576	0.0960	-0.5062	-0.3366	1.9727	1.8901	1.7844	1.3968	
-0.0667	 2.88935738001347E-0003	-1.1736	-1.1736	-0.5790	0.3820	0.7824	2.3383	0.8207	0.4467	-0.8085	0.0815	1.5439	1.6225	-0.4065	0.3561	-0.4008	0.6451	0.1363	0.5206	-0.0220	0.3334	0.0696	0.3233	1.7009	1.4105	1.2220	0.8035	-1.2453	-0.6353	0.3465	0.7588	2.3955	0.9328	0.4774	-0.8412	0.0120	1.5690	1.6611	-0.3471	0.4301	-0.4883	0.5879	0.1230	0.5350	0.0194	0.3401	0.0194	0.2571	1.7411	1.4643	1.2688	0.8440	
0.0000	 1.52015972918211E-0005	-0.4588	-0.4588	-0.1416	0.3835	0.5149	2.1419	0.6038	0.5053	-0.3328	0.7938	0.9549	1.1235	-0.7523	0.0923	0.2316	0.9466	-0.0652	0.0105	0.0889	0.5858	0.5613	0.8705	1.4978	1.0208	0.7354	0.2757	-0.4632	-0.1456	0.3809	0.5129	2.1464	0.6116	0.5076	-0.3348	0.7885	0.9566	1.1266	-0.7479	0.0974	0.2253	0.9428	-0.0660	0.0124	0.0916	0.5854	0.5576	0.8658	1.5020	1.0256	0.7386	0.2780	
0.0667	 2.22266497773168E-0003	0.2632	0.2632	0.3010	0.3865	0.2457	1.9416	0.3811	0.5635	0.1486	1.5120	0.3594	0.6175	-1.1029	-0.1768	0.8720	1.2528	-0.2672	-0.5022	0.1971	0.8381	1.0589	1.4218	1.2918	0.6247	0.2416	-0.2579	0.3274	0.3508	0.4173	0.2663	1.8915	0.2823	0.5363	0.1770	1.5719	0.3376	0.5840	-1.1546	-0.2427	0.9486	1.3035	-0.2547	-0.5125	0.1601	0.8317	1.1023	1.4794	1.2589	0.5792	0.2002	-0.2952	
0.1333	 9.32235159682035E-0003	0.9859	0.9859	0.7439	0.3903	-0.0223	1.7381	0.1547	0.6199	0.6286	2.2264	-0.2378	0.1113	-1.4535	-0.4472	1.5113	1.5588	-0.4682	-1.0146	0.3046	1.0909	1.5557	1.9735	1.0868	0.2276	-0.2533	-0.7948	1.1162	0.8456	0.4550	0.0213	1.6343	-0.0502	0.5638	0.6861	2.3481	-0.2818	0.0433	-1.5595	-0.5822	1.6672	1.6619	-0.4429	-1.0368	0.2285	1.0773	1.6435	2.0903	1.0176	0.1341	-0.3374	-0.8697	
0.2000	 2.05437372381125E-0002	1.7013	1.7013	1.1844	0.3954	-0.2876	1.5345	-0.0725	0.6761	1.1053	2.9281	-0.8301	-0.3917	-1.7998	-0.7136	2.1409	1.8605	-0.6693	-1.5236	0.4131	1.3422	2.0461	2.5167	0.8842	-0.1649	-0.7444	-1.3275	1.8917	1.3345	0.4929	-0.2209	1.3785	-0.3806	0.5913	1.1894	3.1064	-0.8939	-0.4924	-1.9568	-0.9145	2.3714	2.0134	-0.6312	-1.5557	0.2995	1.3217	2.1762	2.6880	0.7806	-0.3048	-0.8686	-1.4367	
