Arquivo: c:\arq\medidas\BBA_2003_073142\BBA_AMP08B_V.dat
Data: 2003	 Hora:  0819
Comentário: 
NomeParametro	 ValorParametro
Nmedias	5
PausaCorretora	3000
PausaShunt	2000
PausaLeitura	500
NumCiclos	3
 NPassosCor	7
DeltaShunt	3.00
TetaIni	-0.20
TetaFim	0.20
I[mA]	  29.2
ACV11B	DeltaPos^2	AMP08B	AMP01B_0	AMP02A_0	AMP02B_0	AMP03A_0	AMP03B_0	AMP03C_0	AMP04A_0	AMP04B_0	AMP05A_0	AMP05B_0	AMP06A_0	AMP06B_0	AMP07A_0	AMP07B_0	AMP08A_0	AMP08B_0	AMP09A_0	AMP09B_0	AMP10A_0	AMP10B_0	AMU11A_0	AMU11B_0	AMP12A_0	AMP12B_0	AMP01A_0	AMP01B_1	AMP02A_1	AMP02B_1	AMP03A_1	AMP03B_1	AMP03C_1	AMP04A_1	AMP04B_1	AMP05A_1	AMP05B_1	AMP06A_1	AMP06B_1	AMP07A_1	AMP07B_1	AMP08A_1	AMP08B_1	AMP09A_1	AMP09B_1	AMP10A_1	AMP10B_1	AMU11A_1	AMU11B_1	AMP12A_1	AMP12B_1	AMP01A_1	
-0.2000	 9.76272511594482E-0004	-1.1409	1.1809	0.6066	-0.2713	-1.0494	2.4096	1.8303	1.3228	1.0218	2.4589	-0.9799	-0.2167	-1.1427	0.3027	1.3415	1.2036	-1.1409	-1.8780	1.2736	1.7363	1.7081	1.6437	0.0203	-0.4232	-0.2801	-0.4375	1.1633	0.5843	-0.3004	-1.0842	2.4474	1.9101	1.3510	1.0215	2.4436	-0.9928	-0.2127	-1.1126	0.3507	1.3065	1.1725	-1.1683	-1.9188	1.3108	1.7642	1.7238	1.6484	-0.0058	-0.4353	-0.2627	-0.4034	
-0.1333	 4.71709217941503E-0004	-0.7972	0.6262	0.3575	-0.0431	-0.5145	2.3178	1.4081	1.0411	0.5585	1.9018	-0.3170	0.2443	-1.0113	0.2362	0.9822	1.1200	-0.7972	-1.2727	0.8947	1.3638	1.3281	1.3867	0.5161	0.0647	0.0646	-0.1908	0.6138	0.3421	-0.0635	-0.5386	2.3439	1.4640	1.0611	0.5587	1.8908	-0.3257	0.2471	-0.9907	0.2695	0.9577	1.0983	-0.8159	-1.3013	0.9201	1.3831	1.3390	1.3899	0.4982	0.0560	0.0761	-0.1673	
-0.0667	 1.39710649561681E-0004	-0.4441	0.0549	0.1008	0.1921	0.0366	2.2227	0.9729	0.7514	0.0810	1.3242	0.3662	0.7191	-0.8743	0.1706	0.6091	1.0321	-0.4441	-0.6473	0.5069	0.9809	0.9347	1.1197	1.0247	0.5673	0.4194	0.0624	0.0482	0.0924	0.1811	0.0236	2.2373	1.0034	0.7622	0.0808	1.3179	0.3614	0.7205	-0.8630	0.1884	0.5960	1.0201	-0.4546	-0.6629	0.5206	0.9917	0.9404	1.1213	1.0151	0.5628	0.4259	0.0751	
0.0000	 3.63484728426929E-0006	-0.0864	-0.5247	-0.1597	0.4294	0.5950	2.1264	0.5302	0.4571	-0.4035	0.7365	1.0566	1.2002	-0.7348	0.1044	0.2305	0.9421	-0.0864	-0.0129	0.1143	0.5924	0.5343	0.8490	1.5388	1.0758	0.7791	0.3183	-0.5259	-0.1612	0.4278	0.5931	2.1293	0.5350	0.4590	-0.4039	0.7352	1.0562	1.2005	-0.7328	0.1076	0.2282	0.9398	-0.0880	-0.0148	0.1165	0.5941	0.5348	0.8492	1.5382	1.0759	0.7804	0.3202	
0.0667	 6.43569614527768E-0005	0.2734	-1.1078	-0.4215	0.6678	1.1540	2.0290	0.0858	0.1619	-0.8888	0.1448	1.7478	1.6811	-0.5949	0.0378	-0.1495	0.8526	0.2734	0.6253	-0.2814	0.2014	0.1333	0.5772	2.0516	1.5837	1.1399	0.5768	-1.1037	-0.4161	0.6756	1.1636	2.0205	0.0654	0.1543	-0.8897	0.1482	1.7517	1.6809	-0.6021	0.0260	-0.1407	0.8597	0.2805	0.6361	-0.2908	0.1940	0.1285	0.5754	2.0598	1.5883	1.1365	0.5679	
0.1333	 3.17649458166527E-0004	0.6319	-1.6873	-0.6834	0.9051	1.7079	1.9323	-0.3566	-0.1322	-1.3719	-0.4468	2.4327	2.1587	-0.4565	-0.0304	-0.5266	0.7641	0.6319	1.2612	-0.6785	-0.1892	-0.2646	0.3084	2.5593	2.0870	1.4990	0.8355	-1.6781	-0.6713	0.9217	1.7284	1.9125	-0.4028	-0.1487	-1.3727	-0.4383	2.4410	2.1574	-0.4728	-0.0570	-0.5073	0.7810	0.6475	1.2854	-0.6995	-0.2056	-0.2751	0.3050	2.5757	2.0959	1.4906	0.8164	
0.2000	 7.41794636799416E-0004	0.9907	-2.2615	-0.9439	1.1397	2.2545	1.8374	-0.7949	-0.4237	-1.8502	-1.0328	3.1067	2.6297	-0.3217	-0.1021	-0.8987	0.6796	0.9907	1.8917	-1.0777	-0.5792	-0.6567	0.0469	3.0571	2.5819	1.8557	1.0951	-2.2470	-0.9254	1.1654	2.2853	1.8063	-0.8654	-0.4488	-1.8510	-1.0191	3.1189	2.6272	-0.3470	-0.1429	-0.8681	0.7061	1.0142	1.9281	-1.1090	-0.6041	-0.6721	0.0421	3.0817	2.5948	1.8424	1.0661	
