Arquivo: c:\arq\medidas\BBA_2003_073142\BBA_AMP05B_H.dat
Data: 2003	 Hora:  0759
Comentário: 
NomeParametro	 ValorParametro
Nmedias	5
PausaCorretora	3000
PausaShunt	2000
PausaLeitura	500
NumCiclos	3
 NPassosCor	7
DeltaShunt	3.00
TetaIni	-0.20
TetaFim	0.20
I[mA]	  66.1
ACH01B	DeltaPos^2	AMP05B	AMP01B_0	AMP02A_0	AMP02B_0	AMP03A_0	AMP03B_0	AMP03C_0	AMP04A_0	AMP04B_0	AMP05A_0	AMP05B_0	AMP06A_0	AMP06B_0	AMP07A_0	AMP07B_0	AMP08A_0	AMP08B_0	AMP09A_0	AMP09B_0	AMP10A_0	AMP10B_0	AMU11A_0	AMU11B_0	AMP12A_0	AMP12B_0	AMP01A_0	AMP01B_1	AMP02A_1	AMP02B_1	AMP03A_1	AMP03B_1	AMP03C_1	AMP04A_1	AMP04B_1	AMP05A_1	AMP05B_1	AMP06A_1	AMP06B_1	AMP07A_1	AMP07B_1	AMP08A_1	AMP08B_1	AMP09A_1	AMP09B_1	AMP10A_1	AMP10B_1	AMU11A_1	AMU11B_1	AMP12A_1	AMP12B_1	AMP01A_1	
-0.2000	 6.62795027214128E-0003	1.1626	-2.9594	0.6296	-1.3408	0.2009	-1.1522	-2.7955	-1.0742	-0.4656	0.3185	1.1626	-0.5954	-1.7676	2.1892	2.1558	-1.3710	-1.0333	1.3607	2.0421	-0.2212	-1.4945	-0.1433	0.6442	0.2256	-0.8545	-2.4613	-2.8442	0.6346	-1.3769	0.1474	-1.1637	-2.7788	-1.0119	-0.4415	0.1622	1.0354	-0.5877	-1.7226	2.2143	2.1379	-1.4168	-1.0431	1.4863	2.1402	-0.2916	-1.5521	0.0102	0.8053	0.1724	-0.9242	-2.3797	
-0.1333	 3.16834660829281E-0003	0.6580	-2.3799	0.6082	-1.5389	0.0524	-1.1087	-2.6913	-0.8279	-0.4013	-0.3377	0.6580	-0.1998	-1.4556	1.3569	1.3185	-1.0634	-0.6377	0.8830	1.3903	-0.1944	-1.2643	-0.0012	0.6132	-0.0371	-0.9263	-1.7711	-2.2994	0.6112	-1.5643	0.0165	-1.1157	-2.6791	-0.7850	-0.3853	-0.4460	0.5700	-0.1946	-1.4247	1.3741	1.3058	-1.0951	-0.6445	0.9695	1.4585	-0.2426	-1.3040	0.1045	0.7239	-0.0747	-0.9744	-1.7132	
-0.0667	 9.63449681247017E-0004	0.1417	-1.7919	0.5890	-1.7376	-0.1021	-1.0696	-2.5876	-0.5768	-0.3343	-1.0047	0.1417	0.2007	-1.1380	0.5042	0.4591	-0.7500	-0.2359	0.3920	0.7226	-0.1640	-1.0285	0.1356	0.5748	-0.3014	-0.9956	-1.0707	-1.7464	0.5902	-1.7520	-0.1210	-1.0728	-2.5801	-0.5533	-0.3258	-1.0641	0.0930	0.2030	-1.1213	0.5145	0.4529	-0.7674	-0.2399	0.4392	0.7598	-0.1906	-1.0507	0.1938	0.6355	-0.3226	-1.0224	-1.0376	
0.0000	 3.08142068174364E-0005	-0.3818	-1.2023	0.5727	-1.9336	-0.2626	-1.0361	-2.4856	-0.3230	-0.2644	-1.6743	-0.3818	0.6028	-0.8169	-0.3562	-0.4098	-0.4332	0.1682	-0.1075	0.0442	-0.1299	-0.7890	0.2661	0.5294	-0.5637	-1.0618	-0.3688	-1.1933	0.5719	-1.9372	-0.2643	-1.0355	-2.4829	-0.3192	-0.2636	-1.6844	-0.3899	0.6027	-0.8147	-0.3535	-0.4095	-0.4366	0.1668	-0.0999	0.0510	-0.1344	-0.7934	0.2764	0.5397	-0.5686	-1.0669	-0.3614	
0.0667	 3.95305787192676E-0004	-0.9082	-0.6144	0.5585	-2.1279	-0.4278	-1.0080	-2.3859	-0.0685	-0.1920	-2.3423	-0.9082	1.0032	-0.4951	-1.2174	-1.2801	-0.1154	0.5715	-0.6109	-0.6355	-0.0933	-0.5478	0.3912	0.4782	-0.8242	-1.1254	0.3285	-0.6414	0.5544	-2.1215	-0.4114	-1.0024	-2.3879	-0.0857	-0.2003	-2.3027	-0.8754	0.9993	-0.5078	-1.2201	-1.2724	-0.1061	0.5712	-0.6419	-0.6588	-0.0773	-0.5359	0.3542	0.4388	-0.8145	-1.1105	0.3108	
0.1333	 2.24167599396805E-0003	-1.4337	-0.0311	0.5440	-2.3221	-0.5957	-0.9840	-2.2883	0.1837	-0.1199	-3.0019	-1.4337	1.3984	-0.1752	-2.0672	-2.1418	0.1991	0.9685	-1.1142	-1.3114	-0.0568	-0.3092	0.5119	0.4238	-1.0847	-1.1894	1.0195	-0.1023	0.5423	-2.2996	-0.5662	-0.9801	-2.2971	0.1496	-0.1323	-2.9135	-1.3613	1.3928	-0.2003	-2.0739	-2.1254	0.2246	0.9729	-1.1852	-1.3645	-0.0149	-0.2764	0.4205	0.3287	-1.0527	-1.1478	0.9681	
0.2000	 5.65128644584779E-0003	-1.9223	0.4976	0.5380	-2.4934	-0.7601	-0.9721	-2.2014	0.4211	-0.0466	-3.6076	-1.9223	1.7642	0.1230	-2.8469	-2.9320	0.4934	1.3377	-1.5839	-1.9377	-0.0171	-0.0839	0.6139	0.3641	-1.3181	-1.2417	1.6452	0.4000	0.5404	-2.4597	-0.7289	-0.9759	-2.2143	0.3845	-0.0576	-3.4987	-1.8353	1.7774	0.1043	-2.8835	-2.9376	0.5529	1.3668	-1.7214	-2.0490	0.0563	-0.0150	0.4618	0.2010	-1.2729	-1.1713	1.5809	
