Arquivo: c:\arq\medidas\BBA_1203_071921\BBA_AMP06B_V.dat
Data: 1203	 Hora:  0800
Comentário: 
NomeParametro	 ValorParametro
Nmedias	5
PausaCorretora	3000
PausaShunt	2000
PausaLeitura	500
NumCiclos	3
 NPassosCor	9
DeltaShunt	3.00
TetaIni	-0.20
TetaFim	0.20
I[mA]	 129.0
ACV07A	DeltaPos^2	AMP06B	AMP01B_0	AMP02A_0	AMP02B_0	AMP03A_0	AMP03B_0	AMP04A_0	AMP04B_0	AMP05A_0	AMP05B_0	AMP06A_0	AMP06B_0	AMP07A_0	AMP07B_0	AMP08A_0	AMP08B_0	AMP09A_0	AMP09B_0	AMP10A_0	AMP10B_0	AMP11A_0	AMU11A_0	AMU11B_0	AMP11B_0	AMP12A_0	AMP12B_0	AMP01A_0	AMP01B_1	AMP02A_1	AMP02B_1	AMP03A_1	AMP03B_1	AMP04A_1	AMP04B_1	AMP05A_1	AMP05B_1	AMP06A_1	AMP06B_1	AMP07A_1	AMP07B_1	AMP08A_1	AMP08B_1	AMP09A_1	AMP09B_1	AMP10A_1	AMP10B_1	AMP11A_1	AMU11A_1	AMU11B_1	AMP11B_1	AMP12A_1	AMP12B_1	AMP01A_1	
-0.2000	 2.61771115623720E-0003	-2.4638	1.7232	1.5451	1.3074	1.0274	0.5781	-0.2792	0.6909	2.8521	0.1106	-0.0559	-2.4638	-2.1469	1.6593	2.3244	1.3449	1.4252	-2.2019	-0.7140	0.8656	-0.1953	2.0269	1.8979	-2.5180	0.5873	-0.8928	-1.9894	1.8029	1.5997	1.3204	1.0133	0.5428	-0.2853	0.7397	2.9301	0.0574	-0.1075	-2.5161	-2.2288	1.7286	2.3798	1.3826	1.4515	-2.2713	-0.7470	0.8941	-0.1765	2.0797	1.8901	-2.5717	0.5560	-0.9506	-2.0573	
-0.1500	 1.53833113604922E-0003	-2.0749	1.2339	1.1659	1.1007	0.9179	0.9382	-0.1023	0.4565	2.3890	0.3072	0.2159	-2.0749	-1.6352	1.3538	2.0195	1.0176	1.0884	-1.6758	-0.4079	0.8108	-0.1982	1.7814	1.8094	-1.8428	0.6835	-0.5261	-1.4812	1.2953	1.2079	1.1109	0.9077	0.9118	-0.1070	0.4940	2.4491	0.2670	0.1766	-2.1151	-1.6973	1.4070	2.0621	1.0464	1.1080	-1.7289	-0.4329	0.8326	-0.1980	1.8222	1.8031	-1.8842	0.6595	-0.5703	-1.5336	
-0.1000	 6.82499058746242E-0004	-1.6741	0.7303	0.7761	0.8873	0.8055	1.3087	0.0802	0.2186	1.9123	0.5053	0.4922	-1.6741	-1.1061	1.0379	1.7042	0.6811	0.7430	-1.1327	-0.0933	0.7546	-0.1797	1.5302	1.7184	-1.1417	0.7816	-0.1499	-0.9571	0.7714	0.8039	0.8941	0.7985	1.2913	0.0775	0.2433	1.9532	0.4787	0.4664	-1.7008	-1.1477	1.0737	1.7329	0.7001	0.7557	-1.1681	-0.1096	0.7688	-0.1877	1.5571	1.7145	-1.1694	0.7663	-0.1789	-0.9924	
-0.0500	 1.61764748766151E-0004	-1.2671	0.2207	0.3808	0.6703	0.6889	1.6827	0.2664	-0.0206	1.4291	0.7032	0.7707	-1.2671	-0.5685	0.7158	1.3838	0.3397	0.3935	-0.5802	0.2256	0.6980	-0.1988	1.2757	1.6257	-0.4267	0.8806	0.2312	-0.4240	0.2409	0.3943	0.6737	0.6854	1.6744	0.2659	-0.0082	1.4491	0.6905	0.7580	-1.2799	-0.5885	0.7336	1.3978	0.3490	0.3993	-0.5970	0.2177	0.7053	-0.1937	1.2890	1.6234	-0.4397	0.8732	0.2171	-0.4413	
0.0000	 1.94532382602704E-0006	-0.8542	-0.2956	-0.0209	0.4495	0.5692	2.0605	0.4558	-0.2621	0.9389	0.9004	1.0510	-0.8542	-0.0227	0.3893	1.0583	-0.0070	0.0381	-0.0184	0.5482	0.6420	-0.1993	1.0179	1.5295	0.3002	0.9797	0.6171	0.1156	-0.2970	-0.0220	0.4490	0.5686	2.0622	0.4566	-0.2628	0.9376	0.9015	1.0522	-0.8524	-0.0197	0.3881	1.0568	-0.0081	0.0368	-0.0162	0.5497	0.6417	-0.2095	1.0167	1.5302	0.3029	0.9809	0.6186	0.1172	
0.0500	 2.40039482547663E-0004	-0.4308	-0.8262	-0.4320	0.2229	0.4456	2.4465	0.6507	-0.5082	0.4382	1.1014	1.3362	-0.4308	0.5349	0.0560	0.7240	-0.3630	-0.3271	0.5585	0.8801	0.5869	-0.1992	0.7545	1.4295	1.0441	1.0795	1.0107	0.6690	-0.8497	-0.4483	0.2183	0.4480	2.4583	0.6538	-0.5221	0.4151	1.1166	1.3513	-0.4142	0.5608	0.0356	0.7071	-0.3747	-0.3357	0.5793	0.8911	0.5794	-0.1748	0.7388	1.4323	1.0626	1.0901	1.0284	0.6897	
0.1000	 8.41355399201326E-0004	-0.0078	-1.3552	-0.8434	-0.0053	0.3212	2.8299	0.8462	-0.7535	-0.0636	1.3006	1.6196	-0.0078	1.0922	-0.2753	0.3907	-0.7204	-0.6954	1.1350	1.2137	0.5337	-0.2052	0.4926	1.3272	1.7856	1.1781	1.4039	1.2232	-1.3996	-0.8740	-0.0133	0.3270	2.8507	0.8507	-0.7797	-0.1076	1.3298	1.6479	0.0226	1.1399	-0.3136	0.3591	-0.7421	-0.7115	1.1752	1.2337	0.5190	-0.1955	0.4627	1.3319	1.8183	1.1962	1.4365	1.2619	
0.1500	 1.77399367956271E-0003	0.4123	-1.8813	-1.2532	-0.2328	0.1968	3.2098	1.0417	-0.9968	-0.5630	1.4984	1.9014	0.4123	1.6447	-0.6016	0.0599	-1.0779	-1.0655	1.7102	1.5474	0.4827	-0.1882	0.2327	1.2219	2.5176	1.2736	1.7947	1.7749	-1.9460	-1.2977	-0.2439	0.2063	3.2391	1.0486	-1.0354	-0.6272	1.5412	1.9423	0.4565	1.7139	-0.6575	0.0141	-1.1098	-1.0888	1.7679	1.5761	0.4616	-0.1962	0.1896	1.2283	2.5634	1.2993	1.8427	1.8311	
0.2000	 2.91627295647238E-0003	0.8263	-2.3995	-1.6575	-0.4573	0.0744	3.5824	1.2347	-1.2370	-1.0555	1.6939	2.1789	0.8263	2.1879	-0.9193	-0.2651	-1.4328	-1.4353	2.2772	1.8788	0.4356	-0.1794	-0.0214	1.1138	3.2314	1.3650	2.1799	2.3183	-2.4823	-1.7148	-0.4716	0.0874	3.6190	1.2419	-1.2868	-1.1382	1.7495	2.2321	0.8825	2.2755	-0.9906	-0.3240	-1.4739	-1.4651	2.3517	1.9159	0.4079	-0.1922	-0.0769	1.1218	3.2885	1.3980	2.2410	2.3903	
