Arquivo: c:\arq\medidas\BBA_2205_071750\BBA_AMP03B_V.dat
Data: 2205	 Hora:  0731
Comentário: 
NomeParametro	 ValorParametro
Nmedias	5
PausaCorretora	3000
PausaShunt	2000
PausaLeitura	500
NumCiclos	3
 NPassosCor	7
DeltaShunt	3.00
TetaIni	-0.10
TetaFim	0.10
I[mA]	 146.6
ACV09B	DeltaPos^2	AMP03B	AMP01B_0	AMP02A_0	AMP02B_0	AMP03A_0	AMP03B_0	AMP03C_0	AMP04A_0	AMP04B_0	AMP05A_0	AMP05B_0	AMP06A_0	AMP06B_0	AMP07A_0	AMP07B_0	AMP08A_0	AMP08B_0	AMP09A_0	AMP09B_0	AMP10A_0	AMP10B_0	AMU11A_0	AMU11B_0	AMP12A_0	AMP12B_0	AMP01A_0	AMP01B_1	AMP02A_1	AMP02B_1	AMP03A_1	AMP03B_1	AMP03C_1	AMP04A_1	AMP04B_1	AMP05A_1	AMP05B_1	AMP06A_1	AMP06B_1	AMP07A_1	AMP07B_1	AMP08A_1	AMP08B_1	AMP09A_1	AMP09B_1	AMP10A_1	AMP10B_1	AMU11A_1	AMU11B_1	AMP12A_1	AMP12B_1	AMP01A_1	
-0.1000	 6.52946657812997E-0003	1.3810	0.0779	0.4364	1.0314	1.2406	1.3810	-1.1997	-0.1200	-0.2857	1.2384	1.1654	0.9963	-1.4363	-0.9611	1.1055	1.6458	0.4076	0.3367	-0.7865	-0.0358	0.2460	0.8522	2.0810	1.2703	0.2837	-0.5833	0.1761	0.5197	1.0917	1.2880	1.2903	-1.3969	-0.2027	-0.3307	1.2172	1.2549	1.0348	-1.4826	-1.0609	1.1444	1.6994	0.4884	0.4333	-0.9068	-0.1134	0.2362	0.8863	2.1240	1.2697	0.2094	-0.6991	
-0.0667	 3.11564531282470E-0003	1.6416	-0.0724	0.2648	0.8269	1.0077	1.6416	-0.6260	0.0843	-0.2852	1.1183	1.0775	1.0211	-1.2269	-0.6293	0.8438	1.4292	0.2468	0.2124	-0.4964	0.1744	0.3620	0.8734	1.8908	1.1802	0.4135	-0.3256	-0.0043	0.3222	0.8685	1.0411	1.5796	-0.7625	0.0268	-0.3160	1.1037	1.1393	1.0475	-1.2587	-0.6981	0.8709	1.4664	0.3027	0.2793	-0.5794	0.1210	0.3554	0.8970	1.9208	1.1799	0.3624	-0.4052	
-0.0333	 9.00688077628762E-0004	1.9072	-0.2261	0.0895	0.6178	0.7692	1.9072	-0.0394	0.2926	-0.2845	0.9961	0.9869	1.0457	-1.0135	-0.2908	0.5774	1.2086	0.0822	0.0853	-0.2000	0.3891	0.4804	0.8946	1.6963	1.0881	0.5461	-0.0624	-0.1892	0.1204	0.6404	0.7872	1.8740	-0.1127	0.2619	-0.3011	0.9884	1.0203	1.0602	-1.0305	-0.3270	0.5920	1.2286	0.1126	0.1215	-0.2446	0.3602	0.4771	0.9074	1.7129	1.0884	0.5187	-0.1052	
0.0000	 1.44130810852825E-0005	2.1740	-0.3816	-0.0876	0.4070	0.5278	2.1740	0.5512	0.5028	-0.2829	0.8738	0.8947	1.0701	-0.7978	0.0504	0.3091	0.9853	-0.0844	-0.0444	0.0995	0.6060	0.6003	0.9159	1.4992	0.9951	0.6799	0.2031	-0.3766	-0.0838	0.4101	0.5301	2.1705	0.5423	0.4993	-0.2852	0.8730	0.8990	1.0722	-0.7996	0.0464	0.3110	0.9879	-0.0801	-0.0388	0.0942	0.6021	0.5997	0.9176	1.5023	0.9961	0.6768	0.1979	
0.0333	 5.18561913903705E-0004	2.4412	-0.5391	-0.2663	0.1945	0.2850	2.4412	1.1445	0.7144	-0.2810	0.7513	0.8014	1.0940	-0.5812	0.3933	0.0391	0.7612	-0.2518	-0.1744	0.4007	0.8243	0.7205	0.9370	1.3009	0.9018	0.8143	0.4712	-0.5660	-0.2897	0.1777	0.2714	2.4669	1.2006	0.7383	-0.2683	0.7575	0.7764	1.0836	-0.5675	0.4224	0.0277	0.7456	-0.2740	-0.2003	0.4346	0.8463	0.7235	0.9279	1.2899	0.9024	0.8352	0.5036	
0.0667	 2.41683726000059E-0003	2.7076	-0.6964	-0.4450	-0.0195	0.0410	2.7076	1.7361	0.9270	-0.2783	0.6293	0.7071	1.1176	-0.3642	0.7361	-0.2312	0.5361	-0.4196	-0.3055	0.7020	1.0432	0.8420	0.9582	1.1013	0.8075	0.9493	0.7397	-0.7554	-0.4956	-0.0562	0.0114	2.7626	1.8557	0.9779	-0.2505	0.6430	0.6523	1.0944	-0.3351	0.7982	-0.2554	0.5031	-0.4682	-0.3629	0.7757	1.0902	0.8478	0.9382	1.0761	0.8089	0.9946	0.8100	
0.1000	 5.64315966412193E-0003	2.9730	-0.8533	-0.6238	-0.2333	-0.2033	2.9730	2.3242	1.1396	-0.2747	0.5082	0.6118	1.1403	-0.1473	1.0789	-0.5015	0.3113	-0.5871	-0.4365	1.0038	1.2617	0.9632	0.9806	0.9005	0.7131	1.0840	1.0084	-0.9443	-0.7011	-0.2895	-0.2486	3.0568	2.5048	1.2175	-0.2314	0.5296	0.5272	1.1045	-0.1032	1.1735	-0.5380	0.2610	-0.6620	-0.5253	1.1168	1.3341	0.9729	0.9500	0.8612	0.7145	1.1530	1.1160	
