Arquivo: c:\arq\medidas\BBA_1206_074902\BBA_AMP12A_V.dat
Data: 1206	 Hora:  0858
Comentário: 
NomeParametro	 ValorParametro
Nmedias	5
PausaCorretora	3000
PausaShunt	2000
PausaLeitura	500
NumCiclos	3
 NPassosCor	7
DeltaShunt	3.00
TetaIni	-0.10
TetaFim	0.10
I[mA]	  32.8
ACV09A	DeltaPos^2	AMP12A	AMP01B_0	AMP02A_0	AMP02B_0	AMP03A_0	AMP03B_0	AMP03C_0	AMP04A_0	AMP04B_0	AMP05A_0	AMP05B_0	AMP06A_0	AMP06B_0	AMP07A_0	AMP07B_0	AMP08A_0	AMP08B_0	AMP09A_0	AMP09B_0	AMP10A_0	AMP10B_0	AMU11A_0	AMU11B_0	AMP12A_0	AMP12B_0	AMP01A_0	AMP01B_1	AMP02A_1	AMP02B_1	AMP03A_1	AMP03B_1	AMP03C_1	AMP04A_1	AMP04B_1	AMP05A_1	AMP05B_1	AMP06A_1	AMP06B_1	AMP07A_1	AMP07B_1	AMP08A_1	AMP08B_1	AMP09A_1	AMP09B_1	AMP10A_1	AMP10B_1	AMU11A_1	AMU11B_1	AMP12A_1	AMP12B_1	AMP01A_1	
-0.1000	 3.10363815018427E-0004	0.3766	-0.1466	-0.1765	-0.1994	-0.4399	2.7998	2.0495	1.1342	0.0824	1.0821	0.2107	0.7733	-0.4630	0.8100	0.0840	0.6188	-0.6889	-0.8604	0.4579	1.0727	1.2920	1.5366	0.7543	0.3766	0.6083	0.4740	-0.1179	-0.1605	-0.2035	-0.4551	2.7905	2.0505	1.1407	0.1033	1.1093	0.1834	0.7515	-0.4755	0.7968	0.1080	0.6291	-0.6990	-0.8797	0.4646	1.0842	1.3117	1.5491	0.7301	0.3569	0.5892	0.4547	
-0.0667	 1.47539117487448E-0004	0.5825	-0.1986	-0.1242	0.0178	-0.1089	2.5862	1.5124	0.9063	-0.0453	1.0177	0.4597	0.8820	-0.5821	0.5441	0.1754	0.7572	-0.4654	-0.5634	0.3089	0.9001	1.0732	1.3634	1.0164	0.5825	0.6135	0.3565	-0.1789	-0.1132	0.0149	-0.1197	2.5775	1.5119	0.9105	-0.0308	1.0356	0.4402	0.8668	-0.5907	0.5343	0.1909	0.7641	-0.4721	-0.5766	0.3139	0.9080	1.0863	1.3697	0.9984	0.5690	0.6004	0.3435	
-0.0333	 4.23113419135646E-0005	0.7911	-0.2527	-0.0725	0.2374	0.2265	2.3697	0.9662	0.6759	-0.1740	0.9520	0.7115	0.9922	-0.7019	0.2756	0.2669	0.8966	-0.2392	-0.2628	0.1586	0.7265	0.8508	1.1876	1.2811	0.7911	0.6199	0.2385	-0.2426	-0.0670	0.2356	0.2194	2.3621	0.9664	0.6779	-0.1668	0.9602	0.6998	0.9842	-0.7062	0.2701	0.2728	0.8998	-0.2429	-0.2690	0.1621	0.7303	0.8568	1.1870	1.2689	0.7842	0.6132	0.2325	
0.0000	 6.87812136411777E-0006	1.0016	-0.3075	-0.0203	0.4587	0.5651	2.1494	0.4130	0.4431	-0.3041	0.8857	0.9661	1.1036	-0.8229	0.0041	0.3596	1.0376	-0.0104	0.0411	0.0056	0.5505	0.6259	1.0101	1.5480	1.0016	0.6262	0.1199	-0.3070	-0.0201	0.4578	0.5623	2.1434	0.4126	0.4428	-0.3040	0.8842	0.9620	1.1026	-0.8229	0.0019	0.3563	1.0369	-0.0111	0.0410	0.0076	0.5503	0.6250	1.0032	1.5419	1.0016	0.6260	0.1205	
0.0333	 4.60459666970449E-0005	1.2130	-0.3630	0.0323	0.6802	0.9045	1.9265	-0.1439	0.2089	-0.4339	0.8200	1.2210	1.2149	-0.9446	-0.2695	0.4520	1.1787	0.2190	0.3469	-0.1472	0.3739	0.3999	0.8300	1.8149	1.2130	0.6329	0.0012	-0.3730	0.0263	0.6810	0.9062	1.9231	-0.1442	0.2068	-0.4417	0.8080	1.2258	1.2222	-0.9399	-0.2666	0.4392	1.1742	0.2222	0.3539	-0.1469	0.3693	0.3914	0.8170	1.8161	1.2203	0.6399	0.0096	
0.0667	 1.72677990504411E-0004	1.4235	-0.4196	0.0840	0.9011	1.2413	1.7038	-0.6990	-0.0239	-0.5634	0.7543	1.4736	1.3255	-1.0661	-0.5426	0.5441	1.3190	0.4474	0.6506	-0.2980	0.1987	0.1741	0.6482	2.0797	1.4235	0.6403	-0.1159	-0.4401	0.0717	0.9035	1.2490	1.7028	-0.7005	-0.0289	-0.5794	0.7312	1.4889	1.3411	-1.0565	-0.5350	0.5219	1.3109	0.4546	0.6651	-0.3004	0.1890	0.1583	0.6297	2.0895	1.4381	0.6544	-0.1008	
0.1000	 4.04968251310089E-0004	1.6343	-0.4760	0.1357	1.1225	1.5765	1.4788	-1.2557	-0.2575	-0.6930	0.6888	1.7259	1.4355	-1.1880	-0.8158	0.6371	1.4604	0.6762	0.9544	-0.4492	0.0228	-0.0518	0.4660	2.3435	1.6343	0.6474	-0.2336	-0.5080	0.1174	1.1266	1.5908	1.4809	-1.2577	-0.2651	-0.7173	0.6545	1.7520	1.4596	-1.1734	-0.8048	0.6051	1.4475	0.6877	0.9778	-0.4547	0.0085	-0.0758	0.4417	2.3629	1.6567	0.6692	-0.2111	
