Arquivo: c:\arq\medidas\BBA_2003_073142\BBA_AMU11B_V.dat
Data: 2003	 Hora:  0838
Comentário: 
NomeParametro	 ValorParametro
Nmedias	5
PausaCorretora	3000
PausaShunt	2000
PausaLeitura	500
NumCiclos	3
 NPassosCor	7
DeltaShunt	3.00
TetaIni	-0.20
TetaFim	0.20
I[mA]	  28.8
ACV11B	DeltaPos^2	AMU11B	AMP01B_0	AMP02A_0	AMP02B_0	AMP03A_0	AMP03B_0	AMP03C_0	AMP04A_0	AMP04B_0	AMP05A_0	AMP05B_0	AMP06A_0	AMP06B_0	AMP07A_0	AMP07B_0	AMP08A_0	AMP08B_0	AMP09A_0	AMP09B_0	AMP10A_0	AMP10B_0	AMU11A_0	AMU11B_0	AMP12A_0	AMP12B_0	AMP01A_0	AMP01B_1	AMP02A_1	AMP02B_1	AMP03A_1	AMP03B_1	AMP03C_1	AMP04A_1	AMP04B_1	AMP05A_1	AMP05B_1	AMP06A_1	AMP06B_1	AMP07A_1	AMP07B_1	AMP08A_1	AMP08B_1	AMP09A_1	AMP09B_1	AMP10A_1	AMP10B_1	AMU11A_1	AMU11B_1	AMP12A_1	AMP12B_1	AMP01A_1	
-0.2000	 1.98374367568790E-0002	-0.1223	1.2650	0.6156	-0.3769	-1.2285	2.5003	2.0761	1.4383	1.1197	2.5466	-1.1469	-0.3093	-1.1110	0.4127	1.3489	1.1599	-1.2641	-2.0525	1.4175	1.8678	1.8502	1.7611	-0.1223	-0.5490	-0.3200	-0.4232	1.4500	0.6966	-0.4672	-1.4255	2.5391	2.2390	1.5469	1.2832	2.7310	-1.3821	-0.4717	-1.1454	0.4530	1.4561	1.1764	-1.3961	-2.2679	1.5630	2.0075	1.9840	1.8426	-0.3017	-0.7246	-0.4366	-0.4985	
-0.1333	 1.07331305373215E-0002	0.4188	0.6822	0.3613	-0.1178	-0.6398	2.3834	1.5848	1.1230	0.6255	1.9604	-0.4326	0.1818	-0.9865	0.3167	0.9840	1.0869	-0.8847	-1.3957	1.0018	1.4590	1.4295	1.4721	0.4188	-0.0205	0.0392	-0.1782	0.8203	0.4197	-0.1829	-0.7843	2.4148	1.7110	1.2014	0.7435	2.0989	-0.6044	0.0651	-1.0132	0.3449	1.0677	1.1011	-0.9779	-1.5555	1.1058	1.5593	1.5295	1.5385	0.2894	-0.1482	-0.0448	-0.2333	
-0.0667	 2.74525939515920E-0003	0.9760	0.0803	0.0989	0.1501	-0.0301	2.2622	1.0747	0.7969	0.1136	1.3498	0.3070	0.6889	-0.8554	0.2204	0.6031	1.0089	-0.4928	-0.7139	0.5741	1.0371	0.9921	1.1704	0.9760	0.5253	0.4102	0.0740	0.1500	0.1283	0.1174	-0.1030	2.2777	1.1387	0.8365	0.1735	1.4202	0.2202	0.6298	-0.8693	0.2344	0.6459	1.0168	-0.5398	-0.7947	0.6265	1.0876	1.0428	1.2041	0.9111	0.4608	0.3673	0.0463	
0.0000	 5.96597247743370E-0007	1.5392	-0.5318	-0.1681	0.4213	0.5889	2.1384	0.5554	0.4655	-0.4064	0.7275	1.0560	1.2036	-0.7219	0.1242	0.2158	0.9295	-0.0955	-0.0197	0.1413	0.6082	0.5465	0.8636	1.5392	1.0783	0.7867	0.3299	-0.5326	-0.1687	0.4217	0.5897	2.1379	0.5540	0.4649	-0.4072	0.7267	1.0572	1.2045	-0.7217	0.1240	0.2153	0.9295	-0.0946	-0.0185	0.1403	0.6075	0.5459	0.8630	1.5402	1.0791	0.7870	0.3297	
0.0667	 2.24853515747864E-0003	2.1008	-1.1467	-0.4366	0.6928	1.2073	2.0143	0.0350	0.1333	-0.9270	0.1016	1.8045	1.7178	-0.5880	0.0268	-0.1722	0.8499	0.3039	0.6766	-0.2951	0.1773	0.1005	0.5557	2.1008	1.6303	1.1646	0.5875	-1.2086	-0.4640	0.7236	1.2720	1.9937	-0.0292	0.0956	-0.9804	0.0394	1.8791	1.7695	-0.5785	0.0091	-0.2078	0.8461	0.3491	0.7515	-0.3458	0.1286	0.0553	0.5256	2.1553	1.6876	1.2031	0.6129	
0.1333	 1.06912798500781E-0002	2.6536	-1.7565	-0.7045	0.9624	1.8174	1.8905	-0.4826	-0.1970	-1.4431	-0.5215	2.5431	2.2264	-0.4567	-0.0726	-0.5559	0.7727	0.7008	1.3685	-0.7321	-0.2521	-0.3402	0.2531	2.6536	2.1750	1.5398	0.8462	-1.8938	-0.7630	1.0274	1.9598	1.8569	-0.6116	-0.2761	-1.5607	-0.6613	2.7120	2.3418	-0.4311	-0.1023	-0.6382	0.7600	0.7958	1.5301	-0.8390	-0.3542	-0.4396	0.1879	2.7794	2.3003	1.6234	0.9015	
0.2000	 2.19618741140853E-0002	3.1910	-2.3546	-0.9689	1.2262	2.4138	1.7701	-0.9898	-0.5209	-1.9493	-1.1332	3.2624	2.7227	-0.3302	-0.1751	-0.9298	0.7009	1.0945	2.0484	-1.1669	-0.6778	-0.7708	-0.0381	3.1910	2.7052	1.9088	1.1030	-2.5513	-1.0533	1.3198	2.6174	1.7210	-1.1746	-0.6347	-2.1176	-1.3337	3.5040	2.8879	-0.2950	-0.2208	-1.0466	0.6836	1.2323	2.2800	-1.3239	-0.8256	-0.9115	-0.1288	3.3698	2.8834	2.0296	1.1840	
