Arquivo: c:\arq\medidas\BBA_2003_073142\BBA_AMP03A_H.dat
Data: 2003	 Hora:  0741
Comentário: 
NomeParametro	 ValorParametro
Nmedias	5
PausaCorretora	3000
PausaShunt	2000
PausaLeitura	500
NumCiclos	3
 NPassosCor	7
DeltaShunt	3.00
TetaIni	-0.20
TetaFim	0.20
I[mA]	 133.3
ACH09A	DeltaPos^2	AMP03A	AMP01B_0	AMP02A_0	AMP02B_0	AMP03A_0	AMP03B_0	AMP03C_0	AMP04A_0	AMP04B_0	AMP05A_0	AMP05B_0	AMP06A_0	AMP06B_0	AMP07A_0	AMP07B_0	AMP08A_0	AMP08B_0	AMP09A_0	AMP09B_0	AMP10A_0	AMP10B_0	AMU11A_0	AMU11B_0	AMP12A_0	AMP12B_0	AMP01A_0	AMP01B_1	AMP02A_1	AMP02B_1	AMP03A_1	AMP03B_1	AMP03C_1	AMP04A_1	AMP04B_1	AMP05A_1	AMP05B_1	AMP06A_1	AMP06B_1	AMP07A_1	AMP07B_1	AMP08A_1	AMP08B_1	AMP09A_1	AMP09B_1	AMP10A_1	AMP10B_1	AMU11A_1	AMU11B_1	AMP12A_1	AMP12B_1	AMP01A_1	
-0.2000	 1.81373031837077E-0002	1.8608	0.2846	-0.4482	-2.7573	1.8608	1.1945	-1.6584	-1.0052	-1.2510	-0.6678	1.1356	0.6685	-1.2877	-1.0492	-0.5104	0.3426	0.4835	-2.0573	-2.3997	0.1452	0.1274	0.3243	0.0168	-1.2319	-1.0981	1.5556	0.3486	-0.3815	-2.7552	1.6615	0.9573	-1.7602	-0.9674	-1.1564	-0.6809	1.0507	0.6104	-1.2809	-0.8690	-0.3871	0.2260	0.4014	-1.8005	-2.1522	0.0415	0.0073	0.5139	0.2461	-1.2619	-1.1842	1.5488	
-0.1333	 8.79433914692602E-0003	1.1183	-0.1744	-0.0927	-2.4874	1.1183	0.4327	-1.9348	-0.7450	-0.9012	-1.0688	0.5747	0.6804	-1.0957	-0.8847	-0.5485	0.1064	0.4129	-1.4288	-1.6359	0.0445	-0.1622	0.3495	0.2241	-1.0215	-1.0987	0.9469	-0.1312	-0.0459	-2.4855	0.9766	0.2648	-2.0060	-0.7182	-0.8342	-1.0794	0.5144	0.6405	-1.0904	-0.7604	-0.4642	0.0255	0.3559	-1.2507	-1.4631	-0.0272	-0.2453	0.4797	0.3822	-1.0418	-1.1582	0.9405	
-0.0667	 2.66637219790892E-0003	0.3575	-0.6444	0.2679	-2.2118	0.3575	-0.3461	-2.2150	-0.4800	-0.5451	-1.4777	0.0023	0.6942	-0.8996	-0.7210	-0.5912	-0.1326	0.3427	-0.7912	-0.8567	-0.0554	-0.4552	0.3704	0.4303	-0.8053	-1.0968	0.3220	-0.6221	0.2941	-2.2101	0.2772	-0.4409	-2.2546	-0.4648	-0.5078	-1.4848	-0.0326	0.6726	-0.8962	-0.6536	-0.5457	-0.1769	0.3114	-0.6938	-0.7619	-0.0943	-0.5007	0.4408	0.5159	-0.8161	-1.1291	0.3173	
0.0000	 9.39016094590873E-0005	-0.4026	-1.1154	0.6255	-1.9360	-0.4026	-1.1214	-2.4928	-0.2161	-0.1914	-1.8865	-0.5692	0.7099	-0.7033	-0.5628	-0.6379	-0.3684	0.2749	-0.1598	-0.0820	-0.1524	-0.7448	0.3868	0.6304	-0.5889	-1.0931	-0.3025	-1.1135	0.6318	-1.9343	-0.4212	-1.1434	-2.5013	-0.2119	-0.1830	-1.8902	-0.5789	0.7064	-0.7016	-0.5523	-0.6314	-0.3763	0.2696	-0.1435	-0.0661	-0.1588	-0.7530	0.3973	0.6435	-0.5901	-1.0983	-0.3062	
0.0667	 1.07594922815298E-0003	-1.1620	-1.5859	0.9826	-1.6590	-1.1620	-1.8931	-2.7696	0.0486	0.1616	-2.2980	-1.1423	0.7283	-0.5050	-0.4112	-0.6911	-0.6019	0.2097	0.4668	0.6882	-0.2476	-1.0326	0.3993	0.8258	-0.3714	-1.0876	-0.9292	-1.6046	0.9687	-1.6576	-1.1186	-1.8419	-2.7471	0.0414	0.1410	-2.2978	-1.1258	0.7428	-0.5055	-0.4564	-0.7225	-0.5732	0.2302	0.4018	0.6257	-0.2215	-1.0031	0.3502	0.7671	-0.3628	-1.0653	-0.9311	
0.1333	 5.53902787624205E-0003	-1.9179	-2.0571	1.3374	-1.3810	-1.9179	-2.6584	-3.0450	0.3146	0.5131	-2.7121	-1.7153	0.7500	-0.3048	-0.2669	-0.7509	-0.8321	0.1483	1.0853	1.4496	-0.3398	-1.3171	0.4065	1.0151	-0.1526	-1.0793	-1.5542	-2.0944	1.3034	-1.3807	-1.8124	-2.5348	-2.9916	0.2951	0.4633	-2.7069	-1.6729	0.7823	-0.3078	-0.3678	-0.8198	-0.7671	0.1939	0.9403	1.3101	-0.2815	-1.2502	0.2984	0.8850	-0.1350	-1.0303	-1.5542	
0.2000	 1.30795646167441E-0002	-2.6643	-2.5242	1.6895	-1.1050	-2.6643	-3.4119	-3.3181	0.5803	0.8628	-3.1270	-2.2858	0.7749	-0.1036	-0.1309	-0.8180	-1.0592	0.0900	1.6925	2.1974	-0.4302	-1.5991	0.4089	1.1979	0.0657	-1.0691	-2.1740	-2.5748	1.6322	-1.1086	-2.4957	-3.2150	-3.2331	0.5461	0.7812	-3.1155	-2.2161	0.8225	-0.1120	-0.2847	-0.9214	-0.9613	0.1574	1.4704	1.9845	-0.3430	-1.4992	0.2459	1.0011	0.0886	-0.9983	-2.1685	
