Arquivo: c:\arq\medidas\BBA_2003_073142\BBA_AMP04A_H.dat
Data: 2003	 Hora:  0750
Comentário: 
NomeParametro	 ValorParametro
Nmedias	5
PausaCorretora	3000
PausaShunt	2000
PausaLeitura	500
NumCiclos	3
 NPassosCor	7
DeltaShunt	3.00
TetaIni	-0.20
TetaFim	0.20
I[mA]	  88.7
ACH09A	DeltaPos^2	AMP04A	AMP01B_0	AMP02A_0	AMP02B_0	AMP03A_0	AMP03B_0	AMP03C_0	AMP04A_0	AMP04B_0	AMP05A_0	AMP05B_0	AMP06A_0	AMP06B_0	AMP07A_0	AMP07B_0	AMP08A_0	AMP08B_0	AMP09A_0	AMP09B_0	AMP10A_0	AMP10B_0	AMU11A_0	AMU11B_0	AMP12A_0	AMP12B_0	AMP01A_0	AMP01B_1	AMP02A_1	AMP02B_1	AMP03A_1	AMP03B_1	AMP03C_1	AMP04A_1	AMP04B_1	AMP05A_1	AMP05B_1	AMP06A_1	AMP06B_1	AMP07A_1	AMP07B_1	AMP08A_1	AMP08B_1	AMP09A_1	AMP09B_1	AMP10A_1	AMP10B_1	AMU11A_1	AMU11B_1	AMP12A_1	AMP12B_1	AMP01A_1	
-0.2000	 4.00991883241554E-0003	-1.0125	0.2885	-0.4555	-2.7650	1.8596	1.1928	-1.6616	-1.0125	-1.2573	-0.6647	1.1329	0.6626	-1.2959	-1.0376	-0.5014	0.3338	0.4737	-2.0502	-2.3895	0.1371	0.1163	0.3321	0.0269	-1.2406	-1.1086	1.5565	0.3765	-0.4718	-2.8108	1.8165	1.1820	-1.6497	-0.9862	-1.2229	-0.7316	1.0409	0.6449	-1.2850	-1.0137	-0.5110	0.2751	0.4428	-1.9514	-2.3113	0.0606	0.0496	0.4491	0.1501	-1.3019	-1.1830	1.6147	
-0.1333	 2.72540847880697E-0003	-0.7520	-0.1706	-0.1002	-2.4950	1.1183	0.4312	-1.9374	-0.7520	-0.9074	-1.0663	0.5723	0.6753	-1.1034	-0.8744	-0.5412	0.0981	0.4034	-1.4239	-1.6271	0.0372	-0.1727	0.3566	0.2330	-1.0298	-1.1086	0.9476	-0.0980	-0.1139	-2.5332	1.0830	0.4226	-1.9278	-0.7304	-0.8789	-1.1208	0.4968	0.6606	-1.0947	-0.8547	-0.5492	0.0495	0.3779	-1.3423	-1.5621	-0.0259	-0.2275	0.4528	0.3343	-1.0804	-1.1702	0.9963	
-0.0667	 1.64436626518508E-0003	-0.4868	-0.6405	0.2600	-2.2194	0.3595	-0.3461	-2.2172	-0.4868	-0.5515	-1.4756	-0.0003	0.6895	-0.9069	-0.7122	-0.5854	-0.1407	0.3337	-0.7877	-0.8495	-0.0623	-0.4651	0.3773	0.4383	-0.8135	-1.1068	0.3239	-0.5837	0.2497	-2.2490	0.3318	-0.3528	-2.2095	-0.4699	-0.5292	-1.5182	-0.0592	0.6784	-0.8998	-0.6973	-0.5916	-0.1779	0.3143	-0.7245	-0.7991	-0.1118	-0.5075	0.4518	0.5168	-0.8531	-1.1546	0.3617	
0.0000	 8.37773953296344E-0004	-0.2220	-1.1108	0.6179	-1.9434	-0.3996	-1.1210	-2.4945	-0.2220	-0.1976	-1.8859	-0.5725	0.7062	-0.7097	-0.5563	-0.6339	-0.3760	0.2669	-0.1573	-0.0761	-0.1597	-0.7544	0.3933	0.6375	-0.5967	-1.1024	-0.2999	-1.0704	0.6105	-1.9648	-0.4191	-1.1256	-2.4890	-0.2098	-0.1811	-1.9160	-0.6145	0.6983	-0.7045	-0.5452	-0.6387	-0.4029	0.2530	-0.1124	-0.0407	-0.1950	-0.7848	0.4464	0.6938	-0.6249	-1.1366	-0.2727	
0.0667	 2.90992232857313E-0004	0.0433	-1.5819	0.9744	-1.6666	-1.1577	-1.8922	-2.7709	0.0433	0.1553	-2.2983	-1.1459	0.7252	-0.5112	-0.4058	-0.6881	-0.6092	0.2023	0.4676	0.6929	-0.2549	-1.0421	0.4047	0.8322	-0.3791	-1.0965	-0.9260	-1.5582	0.9708	-1.6787	-1.1701	-1.8956	-2.7680	0.0513	0.1664	-2.3168	-1.1715	0.7208	-0.5072	-0.3999	-0.6917	-0.6248	0.1945	0.4942	0.7135	-0.2754	-1.0595	0.4359	0.8650	-0.3954	-1.1164	-0.9105	
0.1333	 3.03180510153976E-0005	0.3090	-2.0515	1.3287	-1.3892	-1.9112	-2.6559	-3.0455	0.3090	0.5065	-2.7124	-1.7183	0.7477	-0.3109	-0.2631	-0.7493	-0.8390	0.1414	1.0843	1.4519	-0.3469	-1.3260	0.4117	1.0210	-0.1606	-1.0881	-1.5492	-2.0433	1.3281	-1.3930	-1.9154	-2.6565	-3.0440	0.3127	0.5113	-2.7185	-1.7271	0.7466	-0.3088	-0.2615	-0.7512	-0.8440	0.1393	1.0925	1.4577	-0.3538	-1.3310	0.4214	1.0311	-0.1662	-1.0943	-1.5445	
0.2000	 4.62250075328355E-0005	0.5753	-2.5188	1.6804	-1.1125	-2.6560	-3.4080	-3.3178	0.5753	0.8561	-3.1279	-2.2886	0.7737	-0.1086	-0.1296	-0.8181	-1.0644	0.0848	1.6885	2.1961	-0.4358	-1.6053	0.4128	1.2017	0.0584	-1.0766	-2.1685	-2.5267	1.6833	-1.1069	-2.6527	-3.4069	-3.3184	0.5750	0.8556	-3.1227	-2.2816	0.7768	-0.1075	-0.1333	-0.8195	-1.0569	0.0898	1.6775	2.1859	-0.4278	-1.5967	0.4003	1.1883	0.0651	-1.0681	-2.1747	
