Arquivo: c:\arq\medidas\BBA_2003_073142\BBA_AMP06B_H.dat
Data: 2003	 Hora:  0806
Comentário: 
NomeParametro	 ValorParametro
Nmedias	5
PausaCorretora	3000
PausaShunt	2000
PausaLeitura	500
NumCiclos	3
 NPassosCor	7
DeltaShunt	3.00
TetaIni	-0.20
TetaFim	0.20
I[mA]	  50.8
ACH01A	DeltaPos^2	AMP06B	AMP01B_0	AMP02A_0	AMP02B_0	AMP03A_0	AMP03B_0	AMP03C_0	AMP04A_0	AMP04B_0	AMP05A_0	AMP05B_0	AMP06A_0	AMP06B_0	AMP07A_0	AMP07B_0	AMP08A_0	AMP08B_0	AMP09A_0	AMP09B_0	AMP10A_0	AMP10B_0	AMU11A_0	AMU11B_0	AMP12A_0	AMP12B_0	AMP01A_0	AMP01B_1	AMP02A_1	AMP02B_1	AMP03A_1	AMP03B_1	AMP03C_1	AMP04A_1	AMP04B_1	AMP05A_1	AMP05B_1	AMP06A_1	AMP06B_1	AMP07A_1	AMP07B_1	AMP08A_1	AMP08B_1	AMP09A_1	AMP09B_1	AMP10A_1	AMP10B_1	AMU11A_1	AMU11B_1	AMP12A_1	AMP12B_1	AMP01A_1	
-0.2000	 2.29529617337201E-0003	-1.5976	-3.2287	0.8702	-1.1727	-0.3471	-1.6910	-2.9827	-0.8724	-0.2191	-0.0363	0.7135	-0.5459	-1.5976	2.2234	2.0361	-1.5225	-1.0516	1.7683	2.3410	-0.4755	-1.6911	0.4066	1.2031	0.0052	-1.1193	-2.1184	-3.1426	0.8425	-1.2201	-0.3448	-1.6638	-2.9624	-0.8645	-0.2367	-0.1090	0.6640	-0.5122	-1.5761	2.1989	1.9881	-1.5499	-1.0554	1.8127	2.3625	-0.5284	-1.7273	0.4929	1.2851	-0.0512	-1.1756	-2.0452	
-0.1333	 1.27381197832972E-0003	-1.3357	-2.5443	0.7653	-1.4355	-0.3147	-1.4660	-2.8147	-0.6891	-0.2381	-0.5912	0.3441	-0.1582	-1.3357	1.3603	1.2173	-1.1592	-0.6417	1.1455	1.5760	-0.3652	-1.3922	0.3710	0.9858	-0.1963	-1.1085	-1.5167	-2.4797	0.7452	-1.4706	-0.3138	-1.4464	-2.7992	-0.6819	-0.2503	-0.6461	0.3066	-0.1325	-1.3190	1.3406	1.1805	-1.1782	-0.6434	1.1781	1.5913	-0.4043	-1.4183	0.4351	1.0467	-0.2377	-1.1497	-1.4619	
-0.0667	 5.59346010813951E-0004	-1.0715	-1.8554	0.6627	-1.6957	-0.2870	-1.2453	-2.6470	-0.5035	-0.2541	-1.1493	-0.0304	0.2299	-1.0715	0.4865	0.3871	-0.7927	-0.2307	0.5117	0.7991	-0.2504	-1.0890	0.3280	0.7603	-0.3949	-1.0938	-0.9164	-1.8122	0.6494	-1.7188	-0.2870	-1.2325	-2.6368	-0.4986	-0.2626	-1.1857	-0.0554	0.2476	-1.0604	0.4735	0.3625	-0.8056	-0.2316	0.5329	0.8089	-0.2758	-1.1061	0.3703	0.8004	-0.4226	-1.1212	-0.8803	
0.0000	 1.31060235502166E-0004	-0.8064	-1.1677	0.5627	-1.9531	-0.2637	-1.0293	-2.4811	-0.3172	-0.2687	-1.7054	-0.4073	0.6169	-0.8064	-0.3885	-0.4449	-0.4262	0.1798	-0.1271	0.0174	-0.1331	-0.7851	0.2771	0.5273	-0.5895	-1.0757	-0.3223	-1.1465	0.5567	-1.9635	-0.2645	-1.0236	-2.4762	-0.3140	-0.2722	-1.7242	-0.4204	0.6265	-0.8003	-0.3947	-0.4575	-0.4322	0.1800	-0.1169	0.0220	-0.1451	-0.7930	0.2973	0.5463	-0.6022	-1.0880	-0.3050	
0.0667	 1.66572515005570E-0006	-0.5428	-0.4867	0.4658	-2.2052	-0.2460	-0.8201	-2.3183	-0.1312	-0.2804	-2.2560	-0.7839	0.9986	-0.5428	-1.2549	-1.2706	-0.0616	0.5855	-0.7643	-0.7594	-0.0125	-0.4808	0.2186	0.2889	-0.7778	-1.0527	0.2591	-0.4879	0.4671	-2.2037	-0.2478	-0.8215	-2.3187	-0.1290	-0.2790	-2.2572	-0.7850	1.0006	-0.5417	-1.2549	-1.2711	-0.0605	0.5872	-0.7648	-0.7602	-0.0117	-0.4798	0.2171	0.2873	-0.7766	-1.0514	0.2577	
0.1333	 1.50892953289259E-0004	-0.2761	0.1927	0.3714	-2.4552	-0.2332	-0.6151	-2.1558	0.0582	-0.2888	-2.8074	-1.1660	1.3815	-0.2761	-2.1224	-2.0994	0.3068	0.9934	-1.4097	-1.5427	0.1132	-0.1727	0.1507	0.0407	-0.9627	-1.0253	0.8362	0.1705	0.3798	-2.4420	-0.2351	-0.6228	-2.1614	0.0582	-0.2833	-2.7914	-1.1554	1.3759	-0.2802	-2.1166	-2.0888	0.3141	0.9959	-1.4212	-1.5486	0.1264	-0.1632	0.1278	0.0182	-0.9477	-1.0103	0.8169	
0.2000	 4.99095066177348E-0004	-0.0102	0.8616	0.2809	-2.6999	-0.2258	-0.4172	-1.9965	0.2471	-0.2952	-3.3519	-1.5477	1.7609	-0.0102	-2.9734	-2.9155	0.6725	1.3967	-2.0528	-2.3166	0.2413	0.1350	0.0740	-0.2154	-1.1423	-0.9939	1.3992	0.8207	0.2937	-2.6775	-0.2264	-0.4296	-2.0069	0.2433	-0.2874	-3.3178	-1.5259	1.7462	-0.0186	-2.9607	-2.8925	0.6842	1.3979	-2.0728	-2.3267	0.2645	0.1511	0.0330	-0.2553	-1.1177	-0.9689	1.3640	
