Arquivo: c:\arq\medidas\BBA_2003_073142\BBA_AMP07B_V.dat
Data: 2003	 Hora:  0813
Comentário: 
NomeParametro	 ValorParametro
Nmedias	5
PausaCorretora	3000
PausaShunt	2000
PausaLeitura	500
NumCiclos	3
 NPassosCor	7
DeltaShunt	3.00
TetaIni	-0.20
TetaFim	0.20
I[mA]	  30.5
ACV07B	DeltaPos^2	AMP07B	AMP01B_0	AMP02A_0	AMP02B_0	AMP03A_0	AMP03B_0	AMP03C_0	AMP04A_0	AMP04B_0	AMP05A_0	AMP05B_0	AMP06A_0	AMP06B_0	AMP07A_0	AMP07B_0	AMP08A_0	AMP08B_0	AMP09A_0	AMP09B_0	AMP10A_0	AMP10B_0	AMU11A_0	AMU11B_0	AMP12A_0	AMP12B_0	AMP01A_0	AMP01B_1	AMP02A_1	AMP02B_1	AMP03A_1	AMP03B_1	AMP03C_1	AMP04A_1	AMP04B_1	AMP05A_1	AMP05B_1	AMP06A_1	AMP06B_1	AMP07A_1	AMP07B_1	AMP08A_1	AMP08B_1	AMP09A_1	AMP09B_1	AMP10A_1	AMP10B_1	AMU11A_1	AMU11B_1	AMP12A_1	AMP12B_1	AMP01A_1	
-0.2000	 3.10616241649973E-0002	-2.1104	-2.9238	-1.6916	0.2557	1.2554	2.9625	1.7007	0.4321	-1.9416	-1.6850	2.8463	2.8269	0.6449	1.3804	-2.1104	-0.7520	-1.0507	-0.5245	2.0253	1.3899	-0.4555	-0.8607	2.0238	2.2304	2.4313	2.2206	-3.2113	-1.8742	0.2402	1.3439	3.0565	1.8278	0.4234	-2.1284	-1.9761	3.0681	3.0228	0.8053	1.5242	-2.3860	-0.9584	-1.1710	-0.5919	2.2622	1.4897	-0.5751	-1.0688	2.0817	2.3679	2.6277	2.4476	
-0.1333	 1.72153522529179E-0002	-1.4001	-2.1953	-1.2226	0.3115	1.0571	2.7046	1.3359	0.4367	-1.4746	-0.9484	2.3052	2.3348	0.2249	0.9922	-1.4001	-0.2293	-0.7401	-0.3467	1.4222	1.1307	-0.1585	-0.3366	1.8866	1.8851	1.9276	1.6361	-2.4100	-1.3584	0.2994	1.1214	2.7756	1.4321	0.4310	-1.6129	-1.1653	2.4692	2.4803	0.3453	1.1014	-1.6069	-0.3827	-0.8277	-0.3942	1.5967	1.2038	-0.2479	-0.4913	1.9312	1.9883	2.0743	1.8050	
-0.0667	 5.86239046587436E-0003	-0.6360	-1.4138	-0.7221	0.3730	0.8490	2.4274	0.9418	0.4389	-0.9771	-0.1618	1.7300	1.8082	-0.2266	0.5703	-0.6360	0.3277	-0.4132	-0.1643	0.7811	0.8588	0.1616	0.2242	1.7361	1.5135	1.3893	1.0128	-1.5393	-0.8014	0.3656	0.8860	2.4692	0.9986	0.4361	-1.0578	-0.2881	1.8250	1.8930	-0.1558	0.6350	-0.7575	0.2384	-0.4636	-0.1906	0.8819	0.9001	0.1089	0.1338	1.7629	1.5739	1.4746	1.1117	
0.0000	 2.58849340382904E-0004	0.1457	-0.6162	-0.2122	0.4372	0.6397	2.1416	0.5361	0.4395	-0.4716	0.6379	1.1451	1.2718	-0.6889	0.1350	0.1457	0.8949	-0.0835	0.0170	0.1305	0.5844	0.4885	0.7956	1.5803	1.1322	0.8399	0.3787	-0.6427	-0.2290	0.4359	0.6481	2.1499	0.5469	0.4385	-0.4885	0.6114	1.1654	1.2899	-0.6740	0.1485	0.1198	0.8761	-0.0939	0.0118	0.1513	0.5928	0.4772	0.7767	1.5862	1.1448	0.8581	0.3992	
0.0667	 2.22840910125702E-0003	0.9389	0.1934	0.3054	0.5036	0.4289	1.8491	0.1211	0.4392	0.0411	1.4455	0.5517	0.7256	-1.1590	-0.3105	0.9389	1.4698	0.2510	0.1999	-0.5292	0.3079	0.8219	1.3735	1.4201	0.7421	0.2805	-0.2641	0.2698	0.3541	0.5093	0.4083	1.8215	0.0828	0.4398	0.0902	1.5228	0.4945	0.6732	-1.2029	-0.3518	1.0137	1.5249	0.2820	0.2160	-0.5918	0.2821	0.8546	1.4289	1.4039	0.7041	0.2273	-0.3245	
0.1333	 1.18459483543499E-0002	1.7318	1.0038	0.8233	0.5710	0.2178	1.5533	-0.2970	0.4378	0.5540	2.2508	-0.0450	0.1772	-1.6289	-0.7570	1.7318	2.0441	0.5868	0.3847	-1.1912	0.0290	1.1567	1.9522	1.2605	0.3508	-0.2810	-0.9104	1.1808	0.9364	0.5840	0.1683	1.4903	-0.3836	0.4401	0.6678	2.4270	-0.1786	0.0563	-1.7301	-0.8514	1.9031	2.1705	0.6589	0.4222	-1.3357	-0.0306	1.2322	2.0803	1.2228	0.2624	-0.4040	-1.0500	
0.2000	 2.72710784955291E-0002	2.5069	1.8006	1.3343	0.6376	0.0082	1.2604	-0.7094	0.4382	1.0611	3.0370	-0.6355	-0.3651	-2.0895	-1.1937	2.5069	2.6071	0.9206	0.5707	-1.8452	-0.2487	1.4849	2.5194	1.1028	-0.0358	-0.8348	-1.5464	2.0685	1.5060	0.6565	-0.0678	1.1638	-0.8407	0.4415	1.2349	3.3020	-0.8403	-0.5508	-2.2423	-1.3358	2.7640	2.7981	1.0320	0.6309	-2.0657	-0.3408	1.5992	2.7126	1.0456	-0.1695	-1.0221	-1.7589	
