Arquivo: c:\arq\medidas\BBA_0304_072142\BBA_AMP02B_V.dat
Data: 0304	 Hora:  0729
Comentário: 
NomeParametro	 ValorParametro
Nmedias	5
PausaCorretora	3000
PausaShunt	2000
PausaLeitura	500
NumCiclos	3
 NPassosCor	7
DeltaShunt	3.00
TetaIni	-0.10
TetaFim	0.10
I[mA]	 147.5
ACV09B	DeltaPos^2	AMP02B	AMP01B_0	AMP02A_0	AMP02B_0	AMP03A_0	AMP03B_0	AMP03C_0	AMP04A_0	AMP04B_0	AMP05A_0	AMP05B_0	AMP06A_0	AMP06B_0	AMP07A_0	AMP07B_0	AMP08A_0	AMP08B_0	AMP09A_0	AMP09B_0	AMP10A_0	AMP10B_0	AMU11A_0	AMU11B_0	AMP12A_0	AMP12B_0	AMP01A_0	AMP01B_1	AMP02A_1	AMP02B_1	AMP03A_1	AMP03B_1	AMP03C_1	AMP04A_1	AMP04B_1	AMP05A_1	AMP05B_1	AMP06A_1	AMP06B_1	AMP07A_1	AMP07B_1	AMP08A_1	AMP08B_1	AMP09A_1	AMP09B_1	AMP10A_1	AMP10B_1	AMU11A_1	AMU11B_1	AMP12A_1	AMP12B_1	AMP01A_1	
-0.1000	 5.93427737794656E-0004	1.0372	0.1061	0.4556	1.0372	1.2324	1.2786	-1.2731	-0.1368	-0.2490	1.3047	1.1298	0.9549	-1.4853	-1.0182	1.1788	1.6921	0.4112	0.3132	-0.8157	-0.0372	0.2863	0.9033	2.0443	1.2264	0.2537	-0.6044	0.1344	0.4808	1.0594	1.2650	1.2528	-1.3308	-0.1604	-0.2604	1.3006	1.1534	0.9645	-1.4998	-1.0458	1.1905	1.7087	0.4356	0.3402	-0.8510	-0.0596	0.2839	0.9144	2.0564	1.2246	0.2308	-0.6397	
-0.0667	 3.22566678100378E-0004	0.8312	-0.0452	0.2826	0.8312	0.9986	1.5453	-0.6899	0.0675	-0.2603	1.1660	1.0555	0.9925	-1.2657	-0.6768	0.9007	1.4663	0.2524	0.1979	-0.5244	0.1700	0.3926	0.9139	1.8635	1.1461	0.3877	-0.3459	-0.0239	0.3015	0.8478	1.0229	1.5263	-0.7328	0.0499	-0.2681	1.1643	1.0718	0.9989	-1.2767	-0.6970	0.9096	1.4791	0.2702	0.2169	-0.5503	0.1541	0.3912	0.9229	1.8721	1.1442	0.3705	-0.3720	
-0.0333	 1.29459787710078E-0004	0.6209	-0.2000	0.1066	0.6209	0.7596	1.8166	-0.0950	0.2754	-0.2713	1.0256	0.9786	1.0297	-1.0423	-0.3290	0.6178	1.2365	0.0902	0.0793	-0.2274	0.3814	0.5006	0.9243	1.6793	1.0649	0.5242	-0.0825	-0.1861	0.1190	0.6318	0.7748	1.8039	-0.1219	0.2648	-0.2754	1.0258	0.9881	1.0331	-1.0496	-0.3417	0.6242	1.2449	0.1014	0.0905	-0.2437	0.3715	0.5004	0.9308	1.6841	1.0620	0.5129	-0.0991	
0.0000	 2.21062072690155E-0005	0.4083	-0.3575	-0.0726	0.4083	0.5171	2.0903	0.5064	0.4862	-0.2819	0.8841	0.9002	1.0667	-0.8160	0.0226	0.3320	1.0033	-0.0746	-0.0416	0.0734	0.5956	0.6096	0.9344	1.4922	0.9818	0.6625	0.1844	-0.3510	-0.0668	0.4129	0.5228	2.0842	0.4958	0.4825	-0.2821	0.8866	0.9019	1.0667	-0.8197	0.0177	0.3353	1.0072	-0.0705	-0.0388	0.0671	0.5922	0.6109	0.9388	1.4933	0.9791	0.6571	0.1773	
0.0333	 1.03408650112859E-0005	0.1939	-0.5168	-0.2527	0.1939	0.2726	2.3648	1.1111	0.6986	-0.2920	0.7426	0.8207	1.1033	-0.5883	0.3762	0.0443	0.7685	-0.2407	-0.1637	0.3778	0.8112	0.7197	0.9442	1.3036	0.8986	0.8014	0.4537	-0.5177	-0.2535	0.1923	0.2685	2.3652	1.1170	0.7020	-0.2880	0.7473	0.8149	1.1001	-0.5884	0.3789	0.0454	0.7682	-0.2434	-0.1692	0.3809	0.8148	0.7227	0.9466	1.3004	0.8955	0.8019	0.4562	
0.0667	 9.67546757234068E-0005	-0.0222	-0.6762	-0.4332	-0.0222	0.0270	2.6381	1.7143	0.9117	-0.3011	0.6017	0.7396	1.1394	-0.3605	0.7298	-0.2433	0.5338	-0.4071	-0.2866	0.6813	1.0276	0.8311	0.9543	1.1142	0.8145	0.9410	0.7236	-0.6848	-0.4408	-0.0300	0.0134	2.6451	1.7362	0.9220	-0.2929	0.6087	0.7259	1.1323	-0.3567	0.7407	-0.2453	0.5290	-0.4169	-0.3009	0.6951	1.0382	0.8353	0.9544	1.1063	0.8112	0.9477	0.7360	
0.1000	 2.78247441204530E-0004	-0.2401	-0.8368	-0.6154	-0.2401	-0.2215	2.9136	2.3196	1.1273	-0.3094	0.4603	0.6568	1.1746	-0.1306	1.0871	-0.5339	0.2965	-0.5750	-0.4107	0.9885	1.2466	0.9434	0.9652	0.9211	0.7298	1.0819	0.9965	-0.8531	-0.6300	-0.2543	-0.2450	2.9270	2.3572	1.1445	-0.2974	0.4694	0.6357	1.1645	-0.1230	1.1058	-0.5382	0.2873	-0.5920	-0.4336	1.0126	1.2636	0.9491	0.9631	0.9094	0.7262	1.0950	1.0191	
