Arquivo: c:\arq\medidas\BBA_2003_073142\BBA_AMP09B_H.dat
Data: 2003	 Hora:  0824
Comentário: 
NomeParametro	 ValorParametro
Nmedias	5
PausaCorretora	3000
PausaShunt	2000
PausaLeitura	500
NumCiclos	3
 NPassosCor	7
DeltaShunt	3.00
TetaIni	-0.20
TetaFim	0.20
I[mA]	  29.0
ACH05B	DeltaPos^2	AMP09B	AMP01B_0	AMP02A_0	AMP02B_0	AMP03A_0	AMP03B_0	AMP03C_0	AMP04A_0	AMP04B_0	AMP05A_0	AMP05B_0	AMP06A_0	AMP06B_0	AMP07A_0	AMP07B_0	AMP08A_0	AMP08B_0	AMP09A_0	AMP09B_0	AMP10A_0	AMP10B_0	AMU11A_0	AMU11B_0	AMP12A_0	AMP12B_0	AMP01A_0	AMP01B_1	AMP02A_1	AMP02B_1	AMP03A_1	AMP03B_1	AMP03C_1	AMP04A_1	AMP04B_1	AMP05A_1	AMP05B_1	AMP06A_1	AMP06B_1	AMP07A_1	AMP07B_1	AMP08A_1	AMP08B_1	AMP09A_1	AMP09B_1	AMP10A_1	AMP10B_1	AMU11A_1	AMU11B_1	AMP12A_1	AMP12B_1	AMP01A_1	
-0.2000	 4.64189373048122E-0003	1.2230	0.5089	0.5683	-2.5026	-0.8777	-1.0737	-2.2454	0.4160	-0.0243	-3.5870	-1.9720	0.7106	-0.2413	-0.0920	-0.6969	-1.0085	0.0595	1.4486	1.2230	-1.0862	-1.5247	2.3170	2.6349	-1.3608	-2.0397	0.8721	0.6181	0.5084	-2.5587	-0.7613	-0.9444	-2.1921	0.3860	-0.0783	-3.5542	-1.9066	0.7250	-0.2586	-0.1527	-0.7251	-0.9573	0.0866	1.3289	1.1175	-1.0885	-1.4907	2.3534	2.6436	-1.4112	-2.0580	0.9980	
-0.1333	 2.22847348404322E-0003	0.8634	-0.0096	0.5682	-2.3363	-0.7016	-1.0730	-2.3274	0.1748	-0.1033	-2.9766	-1.4668	0.6674	-0.4294	-0.1613	-0.5960	-0.8382	0.0831	0.9689	0.8634	-0.7946	-1.3035	1.6880	1.9889	-1.1249	-1.7466	0.4966	0.0621	0.5276	-2.3768	-0.6268	-0.9875	-2.2996	0.1553	-0.1399	-2.9661	-1.4305	0.6811	-0.4401	-0.2153	-0.6262	-0.7999	0.1047	0.8794	0.7835	-0.7950	-1.2788	1.7118	1.9919	-1.1602	-1.7594	0.5825	
-0.0667	 8.82624419914761E-0004	0.5025	-0.5343	0.5699	-2.1675	-0.5276	-1.0757	-2.4109	-0.0674	-0.1815	-2.3582	-0.9594	0.6241	-0.6175	-0.2310	-0.4951	-0.6679	0.1066	0.4868	0.5025	-0.5022	-1.0817	1.0510	1.3342	-0.8866	-1.4514	0.1151	-0.4869	0.5434	-2.1927	-0.4770	-1.0197	-2.3886	-0.0807	-0.2051	-2.3453	-0.9316	0.6303	-0.6256	-0.2586	-0.5081	-0.6462	0.1180	0.4352	0.4573	-0.5042	-1.0682	1.0689	1.3399	-0.9098	-1.4603	0.1707	
0.0000	 1.23824993932182E-0004	0.1357	-1.0696	0.5728	-1.9936	-0.3531	-1.0810	-2.4966	-0.3129	-0.2597	-1.7256	-0.4445	0.5804	-0.8079	-0.3021	-0.3939	-0.4954	0.1308	-0.0036	0.1357	-0.2060	-0.8563	0.3992	0.6647	-0.6429	-1.1512	-0.2769	-1.0512	0.5624	-2.0041	-0.3331	-1.0594	-2.4861	-0.3183	-0.2685	-1.7188	-0.4328	0.5815	-0.8120	-0.3095	-0.3957	-0.4891	0.1334	-0.0186	0.1233	-0.2088	-0.8536	0.4094	0.6712	-0.6527	-1.1560	-0.2548	
0.0667	 7.37236645584708E-0005	-0.2312	-1.6051	0.5782	-1.8180	-0.1839	-1.0921	-2.5843	-0.5567	-0.3352	-1.0934	0.0659	0.5374	-0.9963	-0.3736	-0.2946	-0.3231	0.1553	-0.4924	-0.2312	0.0899	-0.6314	-0.2552	-0.0080	-0.3973	-0.8494	-0.6753	-1.6158	0.5832	-1.8143	-0.1940	-1.1036	-2.5872	-0.5547	-0.3302	-1.0941	0.0616	0.5340	-0.9967	-0.3637	-0.2870	-0.3322	0.1492	-0.4713	-0.2116	0.0856	-0.6401	-0.2514	-0.0007	-0.3952	-0.8515	-0.6859	
0.1333	 6.80492992687200E-0004	-0.6007	-2.1429	0.5866	-1.6378	-0.0193	-1.1085	-2.6743	-0.7993	-0.4086	-0.4626	0.5719	0.4956	-1.1829	-0.4473	-0.1984	-0.1488	0.1813	-0.9841	-0.6007	0.3872	-0.4041	-0.9147	-0.6863	-0.1482	-0.5448	-1.0802	-2.1848	0.6060	-1.6221	-0.0577	-1.1519	-2.6911	-0.7908	-0.3907	-0.4667	0.5550	0.4874	-1.1811	-0.4209	-0.1803	-0.1740	0.1663	-0.9280	-0.5502	0.3808	-0.4247	-0.9180	-0.6788	-0.1349	-0.5451	-1.1239	
0.2000	 2.10579792559403E-0003	-0.9693	-2.6745	0.5920	-1.4625	0.1508	-1.1188	-2.7619	-1.0442	-0.4844	0.1735	1.0814	0.4545	-1.3717	-0.5236	-0.1019	0.0235	0.2073	-1.4714	-0.9693	0.6799	-0.1800	-1.5641	-1.3570	0.0963	-0.2455	-1.4788	-2.7479	0.6296	-1.4283	0.0781	-1.2006	-2.7925	-1.0266	-0.4498	0.1607	1.0455	0.4413	-1.3645	-0.4769	-0.0740	-0.0160	0.1836	-1.3822	-0.8880	0.6752	-0.2097	-1.5808	-1.3541	0.1258	-0.2384	-1.5613	
