Arquivo: c:\arq\medidas\BBA_2003_073142\BBA_AMP02B_H.dat
Data: 2003	 Hora:  0738
Comentário: 
NomeParametro	 ValorParametro
Nmedias	5
PausaCorretora	3000
PausaShunt	2000
PausaLeitura	500
NumCiclos	3
 NPassosCor	7
DeltaShunt	3.00
TetaIni	-0.20
TetaFim	0.20
I[mA]	 133.6
ACH07A	DeltaPos^2	AMP02B	AMP01B_0	AMP02A_0	AMP02B_0	AMP03A_0	AMP03B_0	AMP03C_0	AMP04A_0	AMP04B_0	AMP05A_0	AMP05B_0	AMP06A_0	AMP06B_0	AMP07A_0	AMP07B_0	AMP08A_0	AMP08B_0	AMP09A_0	AMP09B_0	AMP10A_0	AMP10B_0	AMU11A_0	AMU11B_0	AMP12A_0	AMP12B_0	AMP01A_0	AMP01B_1	AMP02A_1	AMP02B_1	AMP03A_1	AMP03B_1	AMP03C_1	AMP04A_1	AMP04B_1	AMP05A_1	AMP05B_1	AMP06A_1	AMP06B_1	AMP07A_1	AMP07B_1	AMP08A_1	AMP08B_1	AMP09A_1	AMP09B_1	AMP10A_1	AMP10B_1	AMU11A_1	AMU11B_1	AMP12A_1	AMP12B_1	AMP01A_1	
-0.2000	 9.67786566149866E-0003	-3.0500	1.3603	-0.3029	-3.0500	1.1245	0.8857	-1.5683	-0.3079	-0.9163	-2.3614	-0.3373	1.5235	-0.4821	-2.7664	-3.1658	0.1410	1.2947	-0.5726	-1.1856	-0.6042	-0.5371	1.8883	1.7081	-1.7178	-1.8140	2.2102	1.2740	-0.2554	-3.0179	1.1098	0.8274	-1.6100	-0.3740	-0.9363	-2.2432	-0.2595	1.4110	-0.5669	-2.5770	-2.9879	0.0294	1.1767	-0.4235	-1.0083	-0.6627	-0.6350	1.9101	1.7701	-1.7072	-1.8506	2.0883	
-0.1333	 6.70877844123925E-0003	-2.6910	0.5644	0.0010	-2.6910	0.6243	0.2306	-1.8717	-0.2747	-0.6782	-2.2151	-0.4202	1.2627	-0.5506	-2.0614	-2.3603	-0.0256	0.9667	-0.4311	-0.8224	-0.4606	-0.6075	1.4101	1.3665	-1.3534	-1.5833	1.4053	0.4927	0.0400	-2.6646	0.6127	0.1825	-1.9057	-0.3295	-0.6947	-2.1169	-0.3559	1.1691	-0.6204	-1.9029	-2.2112	-0.1183	0.8688	-0.3076	-0.6743	-0.5090	-0.6886	1.4288	1.4188	-1.3449	-1.6141	1.3034	
-0.0667	 4.15587110940253E-0003	-2.3183	-0.2628	0.3131	-2.3183	0.1096	-0.4439	-2.1823	-0.2416	-0.4343	-2.0619	-0.5031	0.9924	-0.6219	-1.3280	-1.5211	-0.1975	0.6275	-0.2874	-0.4480	-0.3116	-0.6790	0.9132	1.0116	-0.9771	-1.3446	0.5635	-0.3177	0.3431	-2.2987	0.1011	-0.4806	-2.2082	-0.2849	-0.4476	-1.9844	-0.4524	0.9190	-0.6768	-1.2025	-1.4033	-0.2699	0.5510	-0.1898	-0.3312	-0.3502	-0.7436	0.9290	1.0540	-0.9705	-1.3690	0.4843	
0.0000	 2.16162587104882E-0003	-1.9423	-1.0971	0.6252	-1.9423	-0.4085	-1.1203	-2.4921	-0.2089	-0.1899	-1.9073	-0.5856	0.7209	-0.6937	-0.5877	-0.6728	-0.3690	0.2863	-0.1460	-0.0737	-0.1604	-0.7505	0.4070	0.6492	-0.5966	-1.1030	-0.2888	-1.1356	0.6467	-1.9283	-0.4140	-1.1461	-2.5105	-0.2398	-0.1992	-1.8516	-0.5495	0.6677	-0.7330	-0.4973	-0.5881	-0.4216	0.2310	-0.0750	0.0110	-0.1886	-0.7972	0.4197	0.6813	-0.5920	-1.1208	-0.3451	
0.0667	 7.79421189616200E-0004	-1.5643	-1.9297	0.9372	-1.5643	-0.9271	-1.7940	-2.8008	-0.1748	0.0544	-1.7554	-0.6708	0.4495	-0.7641	0.1508	0.1741	-0.5392	-0.0554	-0.0089	0.2971	-0.0077	-0.8198	-0.1042	0.2810	-0.2148	-0.8590	-1.1463	-1.9526	0.9512	-1.5554	-0.9309	-1.8100	-2.8118	-0.1922	0.0499	-1.7223	-0.6497	0.4177	-0.7867	0.2052	0.2245	-0.5699	-0.0879	0.0347	0.3493	-0.0243	-0.8473	-0.0955	0.3018	-0.2108	-0.8692	-1.1798	
0.1333	 1.08882179628306E-0004	-1.1854	-2.7551	1.2482	-1.1854	-1.4462	-2.4633	-3.1069	-0.1384	0.2988	-1.6082	-0.7598	0.1804	-0.8317	0.8826	1.0131	-0.7054	-0.3944	0.1212	0.6608	0.1485	-0.8853	-0.6208	-0.0937	0.1676	-0.6125	-1.9998	-2.7599	1.2535	-1.1832	-1.4464	-2.4675	-3.1102	-0.1444	0.2976	-1.5968	-0.7528	0.1689	-0.8391	0.9019	1.0307	-0.7174	-0.4059	0.1399	0.6820	0.1413	-0.8961	-0.6135	-0.0817	0.1688	-0.6173	-2.0091	
0.2000	 5.90688450162570E-0005	-0.8093	-3.5639	1.5570	-0.8093	-1.9633	-3.1228	-3.4092	-0.0998	0.5425	-1.4685	-0.8542	-0.0839	-0.8959	1.5998	1.8360	-0.8669	-0.7289	0.2420	1.0139	0.3063	-0.9467	-1.1389	-0.4740	0.5477	-0.3653	-2.8399	-3.5531	1.5538	-0.8127	-1.9604	-3.1164	-3.4051	-0.0939	0.5449	-1.4779	-0.8606	-0.0747	-0.8879	1.5857	1.8217	-0.8588	-0.7190	0.2351	1.0043	0.3097	-0.9398	-1.1349	-0.4723	0.5473	-0.3636	-2.8271	
