Arquivo: c:\arq\medidas\BBA_2003_073142\BBA_AMP01B_H.dat
Data: 2003	 Hora:  0731
Comentário: 
NomeParametro	 ValorParametro
Nmedias	5
PausaCorretora	3000
PausaShunt	2000
PausaLeitura	500
NumCiclos	3
 NPassosCor	7
DeltaShunt	3.00
TetaIni	-0.20
TetaFim	0.20
I[mA]	 153.8
ACH07B	DeltaPos^2	AMP01B	AMP01B_0	AMP02A_0	AMP02B_0	AMP03A_0	AMP03B_0	AMP03C_0	AMP04A_0	AMP04B_0	AMP05A_0	AMP05B_0	AMP06A_0	AMP06B_0	AMP07A_0	AMP07B_0	AMP08A_0	AMP08B_0	AMP09A_0	AMP09B_0	AMP10A_0	AMP10B_0	AMU11A_0	AMU11B_0	AMP12A_0	AMP12B_0	AMP01A_0	AMP01B_1	AMP02A_1	AMP02B_1	AMP03A_1	AMP03B_1	AMP03C_1	AMP04A_1	AMP04B_1	AMP05A_1	AMP05B_1	AMP06A_1	AMP06B_1	AMP07A_1	AMP07B_1	AMP08A_1	AMP08B_1	AMP09A_1	AMP09B_1	AMP10A_1	AMP10B_1	AMU11A_1	AMU11B_1	AMP12A_1	AMP12B_1	AMP01A_1	
-0.2000	 1.86936976478088E-0002	1.3581	1.3581	-0.1066	-2.9793	0.6285	0.4650	-1.6790	-0.0470	-0.6825	-2.8758	-0.8873	1.6977	-0.2306	-3.0290	-2.7924	-0.1314	1.0757	0.0148	-0.5865	-0.7993	-0.7999	2.2086	2.1365	-1.7108	-1.9516	2.0574	1.1634	-0.1051	-2.9178	0.6912	0.4626	-1.7100	-0.1342	-0.7100	-2.6524	-0.7033	1.5713	-0.3384	-2.7657	-2.5182	-0.2271	0.9496	0.1616	-0.3813	-0.8029	-0.8700	2.1528	2.1349	-1.6221	-1.9233	1.8314	
-0.1333	 7.83129270474371E-0003	0.5350	0.5350	0.1457	-2.6287	0.2684	-0.0789	-1.9561	-0.0951	-0.5100	-2.5623	-0.7964	1.3731	-0.3804	-2.2196	-2.0827	-0.2162	0.8084	-0.0239	-0.4005	-0.5880	-0.7880	1.6134	1.6487	-1.3346	-1.6681	1.2718	0.4081	0.1467	-2.5888	0.3084	-0.0809	-1.9760	-0.1513	-0.5272	-2.4183	-0.6783	1.2917	-0.4497	-2.0480	-1.9049	-0.2780	0.7273	0.0704	-0.2684	-0.5904	-0.8329	1.5768	1.6471	-1.2774	-1.6496	1.1243	
-0.0667	 1.42463132427762E-0003	-0.3083	-0.3083	0.4006	-2.2708	-0.0968	-0.6301	-2.2363	-0.1454	-0.3357	-2.2407	-0.7028	1.0421	-0.5330	-1.3869	-1.3551	-0.3029	0.5362	-0.0634	-0.2114	-0.3733	-0.7758	1.0040	1.1495	-0.9520	-1.3794	0.4620	-0.3615	0.4007	-2.2546	-0.0793	-0.6306	-2.2444	-0.1689	-0.3431	-2.1790	-0.6521	1.0069	-0.5629	-1.3134	-1.2794	-0.3293	0.5013	-0.0232	-0.1552	-0.3747	-0.7951	0.9890	1.1493	-0.9277	-1.3717	0.3991	
0.0000	 2.03533822477402E-0004	-1.1594	-1.1594	0.6568	-1.9091	-0.4644	-1.1838	-2.5165	-0.1951	-0.1602	-1.9144	-0.6078	0.7074	-0.6872	-0.5437	-0.6209	-0.3885	0.2620	-0.1060	-0.0240	-0.1560	-0.7623	0.3833	0.6407	-0.5639	-1.0867	-0.3594	-1.1378	0.6558	-1.9163	-0.4692	-1.1821	-2.5123	-0.1868	-0.1584	-1.9375	-0.6256	0.7204	-0.6764	-0.5716	-0.6495	-0.3793	0.2748	-0.1203	-0.0446	-0.1560	-0.7553	0.3904	0.6419	-0.5736	-1.0905	-0.3342	
0.0667	 4.48994777870231E-0003	-2.0090	-2.0090	0.9126	-1.5454	-0.8319	-1.7353	-2.7959	-0.2457	0.0141	-1.5866	-0.5128	0.3711	-0.8415	0.3011	0.1140	-0.4731	-0.0127	-0.1529	0.1612	0.0630	-0.7468	-0.2432	0.1249	-0.1753	-0.7923	-1.1851	-1.9131	0.9111	-1.5760	-0.8600	-1.7322	-2.7796	-0.2044	0.0263	-1.6965	-0.6005	0.4336	-0.7893	0.1697	-0.0210	-0.4273	0.0487	-0.2222	0.0618	0.0635	-0.7137	-0.2137	0.1278	-0.2187	-0.8071	-1.0724	
0.1333	 1.41793526986033E-0002	-2.8512	-2.8512	1.1683	-1.1801	-1.2009	-2.2847	-3.0733	-0.2946	0.1893	-1.2615	-0.4209	0.0363	-0.9935	1.1394	0.8423	-0.5532	-0.2843	-0.2082	0.3368	0.2845	-0.7275	-0.8754	-0.3981	0.2146	-0.4953	-2.0093	-2.6812	1.1654	-1.2355	-1.2503	-2.2786	-3.0449	-0.2199	0.2114	-1.4576	-0.5776	0.1474	-0.9009	0.9066	0.6030	-0.4719	-0.1746	-0.3304	0.1624	0.2851	-0.6691	-0.8215	-0.3915	0.1370	-0.5219	-1.8079	
0.2000	 2.86046856581025E-0002	-3.6768	-3.6768	1.4220	-0.8175	-1.5689	-2.8267	-3.3476	-0.3418	0.3633	-0.9413	-0.3336	-0.2962	-1.1434	1.9641	1.5580	-0.6296	-0.5520	-0.2719	0.5039	0.5066	-0.7051	-1.5076	-0.9259	0.6018	-0.1981	-2.8214	-3.4349	1.4161	-0.8982	-1.6383	-2.8174	-3.3076	-0.2365	0.3934	-1.2211	-0.5569	-0.1380	-1.0128	1.6350	1.2194	-0.5155	-0.3970	-0.4448	0.2554	0.5061	-0.6232	-1.4281	-0.9134	0.4888	-0.2378	-2.5348	
