Arquivo: c:\arq\medidas\BBA_2003_071015\BBA_AMP01B_H.dat
Data: 2003	 Hora:  0710
Comentário: 
NomeParametro	 ValorParametro
Nmedias	5
PausaCorretora	3000
PausaShunt	2000
PausaLeitura	500
NumCiclos	3
 NPassosCor	7
DeltaShunt	3.00
TetaIni	-0.20
TetaFim	0.20
I[mA]	 162.9
ACH07B	DeltaPos^2	AMP01B	AMP01B_0	AMP02A_0	AMP02B_0	AMP03A_0	AMP03B_0	AMP03C_0	AMP04A_0	AMP04B_0	AMP05A_0	AMP05B_0	AMP06A_0	AMP06B_0	AMP07A_0	AMP07B_0	AMP08A_0	AMP08B_0	AMP09A_0	AMP09B_0	AMP10A_0	AMP10B_0	AMU11A_0	AMU11B_0	AMP12A_0	AMP12B_0	AMP01A_0	AMP01B_1	AMP02A_1	AMP02B_1	AMP03A_1	AMP03B_1	AMP03C_1	AMP04A_1	AMP04B_1	AMP05A_1	AMP05B_1	AMP06A_1	AMP06B_1	AMP07A_1	AMP07B_1	AMP08A_1	AMP08B_1	AMP09A_1	AMP09B_1	AMP10A_1	AMP10B_1	AMU11A_1	AMU11B_1	AMP12A_1	AMP12B_1	AMP01A_1	
-0.2000	 8.70536345182109E-0001	0.7852	0.7852	0.0169	-2.7600	0.4574	0.0221	-1.8986	-0.1353	-0.5784	-2.6476	-0.7595	1.4980	-0.3428	-2.5344	-2.3352	-0.1282	0.8968	-0.1426	-0.5794	-0.5199	-0.7087	1.6874	1.6555	-1.4221	-1.6667	1.5699	-1.0112	0.5906	-1.9797	-0.4266	-1.2046	-2.5245	-0.2341	-0.1880	-1.9064	-0.5459	0.7625	-0.6892	-0.6790	-0.7130	-0.3562	0.2974	-0.1545	-0.0967	-0.1459	-0.7313	0.4181	0.6309	-0.6195	-1.0969	-0.1662	
-0.1333	 5.27537045526088E-0002	-0.6637	-0.6637	0.4891	-2.1238	-0.2619	-1.0248	-2.4440	-0.2379	-0.2544	-2.0040	-0.5579	0.8772	-0.6368	-0.9814	-0.9724	-0.3142	0.4027	-0.1632	-0.1794	-0.2083	-0.7215	0.6441	0.8070	-0.7302	-1.1575	0.1793	-1.1657	0.6511	-1.9079	-0.4774	-1.2255	-2.5408	-0.2111	-0.1601	-1.8886	-0.5785	0.7018	-0.6974	-0.5301	-0.6014	-0.3838	0.2560	-0.1377	-0.0469	-0.1402	-0.7498	0.3470	0.5953	-0.5564	-1.0654	-0.3471	
-0.0667	 1.32949239946481E-0002	-0.9589	-0.9589	0.5512	-2.0226	-0.3696	-1.1199	-2.4908	-0.2203	-0.2109	-1.9709	-0.5769	0.7887	-0.6645	-0.7401	-0.7734	-0.3585	0.3213	-0.1308	-0.0911	-0.1820	-0.7498	0.4790	0.6950	-0.6421	-1.1200	-0.1372	-1.1943	0.6613	-1.8950	-0.4892	-1.2306	-2.5389	-0.2009	-0.1524	-1.9007	-0.5987	0.6946	-0.6942	-0.5102	-0.5897	-0.3841	0.2516	-0.1309	-0.0370	-0.1351	-0.7507	0.3349	0.5899	-0.5472	-1.0652	-0.3815	
0.0000	 1.26209315398838E-0003	-1.1292	-1.1292	0.6368	-1.9251	-0.4410	-1.1648	-2.5105	-0.2017	-0.1733	-1.9152	-0.5946	0.7197	-0.6866	-0.5745	-0.6425	-0.3829	0.2718	-0.1090	-0.0327	-0.1590	-0.7592	0.3962	0.6471	-0.5771	-1.0924	-0.3267	-1.1924	0.6671	-1.8919	-0.4919	-1.2267	-2.5367	-0.1948	-0.1501	-1.9092	-0.6108	0.6979	-0.6893	-0.5174	-0.5999	-0.3807	0.2576	-0.1319	-0.0392	-0.1371	-0.7497	0.3393	0.5952	-0.5480	-1.0658	-0.3829	
0.0667	 6.48131858509786E-0002	-1.8009	-1.8009	0.8440	-1.6452	-0.7296	-1.5615	-2.7288	-0.2260	-0.0403	-1.6720	-0.5417	0.4595	-0.8001	0.0583	-0.0989	-0.4611	0.0626	-0.1064	0.1481	-0.0189	-0.7657	-0.0695	0.2782	-0.2988	-0.8956	-0.9922	-1.2891	0.7060	-1.8441	-0.5382	-1.2600	-2.5489	-0.1799	-0.1261	-1.8965	-0.6317	0.6614	-0.6949	-0.4232	-0.5265	-0.4013	0.2256	-0.1132	0.0000	-0.1295	-0.7621	0.2977	0.5757	-0.5075	-1.0504	-0.4921	
0.1333	 4.70586196119075E-0002	-1.7404	-1.7404	0.8664	-1.6271	-0.7220	-1.4460	-2.6517	-0.1702	-0.0423	-1.7591	-0.6202	0.4749	-0.7717	-0.0104	-0.1766	-0.4714	0.0868	-0.0699	0.1579	-0.0672	-0.7892	0.0481	0.4077	-0.3286	-0.9523	-0.9662	-1.2783	0.7083	-1.8436	-0.5349	-1.2539	-2.5462	-0.1745	-0.1254	-1.9080	-0.6440	0.6658	-0.6906	-0.4291	-0.5338	-0.4019	0.2289	-0.1055	0.0048	-0.1340	-0.7637	0.3100	0.5888	-0.5119	-1.0558	-0.4846	
0.2000	 9.84642402344291E-0002	-1.9590	-1.9590	0.9568	-1.5089	-0.8459	-1.5615	-2.7115	-0.1537	0.0142	-1.6751	-0.6321	0.3850	-0.7991	0.2143	0.0063	-0.5151	0.0054	-0.0350	0.2597	-0.0366	-0.8098	-0.0545	0.3491	-0.2253	-0.9018	-1.1973	-1.3109	0.7209	-1.8296	-0.5514	-1.2627	-2.5474	-0.1656	-0.1158	-1.9107	-0.6570	0.6569	-0.6896	-0.4024	-0.5154	-0.4097	0.2195	-0.0957	0.0198	-0.1347	-0.7697	0.3032	0.5918	-0.5016	-1.0551	-0.5244	
