Arquivo: c:\arq\medidas\BBA_2003_071015\BBA_AMP03B_H.dat
Data: 2003	 Hora:  0722
Comentário: 
NomeParametro	 ValorParametro
Nmedias	5
PausaCorretora	3000
PausaShunt	2000
PausaLeitura	500
NumCiclos	3
 NPassosCor	7
DeltaShunt	3.00
TetaIni	-0.20
TetaFim	0.20
I[mA]	 160.9
ACH09B	DeltaPos^2	AMP03B	AMP01B_0	AMP02A_0	AMP02B_0	AMP03A_0	AMP03B_0	AMP03C_0	AMP04A_0	AMP04B_0	AMP05A_0	AMP05B_0	AMP06A_0	AMP06B_0	AMP07A_0	AMP07B_0	AMP08A_0	AMP08B_0	AMP09A_0	AMP09B_0	AMP10A_0	AMP10B_0	AMU11A_0	AMU11B_0	AMP12A_0	AMP12B_0	AMP01A_0	AMP01B_1	AMP02A_1	AMP02B_1	AMP03A_1	AMP03B_1	AMP03C_1	AMP04A_1	AMP04B_1	AMP05A_1	AMP05B_1	AMP06A_1	AMP06B_1	AMP07A_1	AMP07B_1	AMP08A_1	AMP08B_1	AMP09A_1	AMP09B_1	AMP10A_1	AMP10B_1	AMU11A_1	AMU11B_1	AMP12A_1	AMP12B_1	AMP01A_1	
-0.2000	 2.29034396428321E-0001	-0.7607	-0.4866	0.1841	-2.2999	0.1174	-0.7607	-2.2626	-0.4799	-0.4490	-1.4964	0.0940	0.8483	-0.9074	-1.0776	-0.8530	0.0430	0.4847	-1.4207	-1.2015	0.0141	-0.4045	0.2624	0.2418	-0.7463	-1.0070	0.5705	-1.2055	0.6215	-1.9149	-0.4103	-1.1824	-2.5312	-0.2521	-0.1913	-1.8235	-0.4943	0.7070	-0.7255	-0.5834	-0.6198	-0.3081	0.2886	-0.3234	-0.2025	-0.0825	-0.6803	0.2626	0.4887	-0.5344	-1.0201	-0.3584	
-0.1333	 1.38246276391805E-0001	-0.6378	-0.7328	0.2882	-2.2059	0.1691	-0.6378	-2.3376	-0.4529	-0.4613	-1.5799	-0.0539	0.7910	-0.8368	-0.8996	-0.7641	-0.0389	0.4339	-1.0309	-0.8459	-0.0113	-0.4542	0.3356	0.3958	-0.7004	-1.0204	0.2241	-1.2181	0.6347	-1.9059	-0.4350	-1.1963	-2.5346	-0.2362	-0.1778	-1.8367	-0.5186	0.6982	-0.7203	-0.5452	-0.5978	-0.3347	0.2721	-0.2528	-0.1375	-0.0984	-0.7044	0.2742	0.5158	-0.5319	-1.0314	-0.3861	
-0.0667	 3.48784585782925E-0002	-1.0175	-0.9347	0.4965	-2.0292	-0.2388	-1.0175	-2.4242	-0.3076	-0.2703	-1.7363	-0.3376	0.7298	-0.7690	-0.6888	-0.6597	-0.1916	0.3473	-0.6104	-0.4604	-0.0657	-0.5891	0.3186	0.4782	-0.6275	-1.0374	-0.0394	-1.2289	0.6532	-1.8936	-0.4613	-1.2129	-2.5364	-0.2197	-0.1632	-1.8550	-0.5512	0.6870	-0.7130	-0.5087	-0.5757	-0.3623	0.2551	-0.1984	-0.0865	-0.1139	-0.7290	0.2907	0.5420	-0.5291	-1.0423	-0.4072	
0.0000	 3.08284456050887E-0005	-1.2198	-1.2263	0.6658	-1.8865	-0.4781	-1.2198	-2.5371	-0.2102	-0.1555	-1.8680	-0.5769	0.6769	-0.7096	-0.4736	-0.5531	-0.3830	0.2414	-0.1475	-0.0378	-0.1287	-0.7485	0.3170	0.5780	-0.5312	-1.0551	-0.4174	-1.2251	0.6631	-1.8865	-0.4630	-1.2060	-2.5330	-0.2118	-0.1602	-1.8661	-0.5717	0.6789	-0.7090	-0.4811	-0.5580	-0.3783	0.2449	-0.1534	-0.0446	-0.1261	-0.7444	0.3143	0.5734	-0.5329	-1.0536	-0.4140	
0.0667	 9.90873533303505E-0002	-1.9635	-1.8266	1.0128	-1.5707	-1.1611	-1.9635	-2.8270	-0.0171	0.1652	-2.1041	-0.9999	0.6021	-0.5947	-0.1332	-0.4044	-0.6778	0.0863	0.5622	0.6057	-0.1416	-0.9659	0.1511	0.5839	-0.2575	-0.9696	-1.1310	-1.3286	0.7422	-1.8230	-0.5788	-1.2945	-2.5686	-0.1589	-0.1030	-1.9308	-0.6889	0.6484	-0.6810	-0.3655	-0.4939	-0.4648	0.1924	0.0738	0.1645	-0.1665	-0.8189	0.3462	0.6540	-0.5051	-1.0757	-0.5644	
0.1333	 1.92685710110655E-0001	-1.8134	-1.9606	1.1359	-1.4358	-1.0836	-1.8134	-2.7890	-0.0102	0.1194	-2.2053	-1.2033	0.5279	-0.5567	0.1054	-0.2596	-0.8026	0.0020	0.9635	0.9661	-0.2262	-1.0763	0.2589	0.7650	-0.2999	-1.0870	-1.3340	-1.2852	0.7308	-1.8291	-0.5349	-1.2567	-2.5493	-0.1754	-0.1251	-1.9174	-0.6640	0.6469	-0.6825	-0.3791	-0.4973	-0.4510	0.1999	0.0254	0.1191	-0.1600	-0.8053	0.3521	0.6451	-0.5177	-1.0776	-0.5074	
0.2000	 8.18465804880009E-0001	-2.9740	-2.8170	1.6269	-1.0223	-2.1754	-2.9740	-3.2894	0.3157	0.6463	-2.5595	-1.8051	0.4510	-0.3855	0.5160	-0.1139	-1.2676	-0.2305	1.8556	1.7811	-0.2293	-1.3431	-0.0596	0.6838	0.1681	-0.9085	-2.3391	-1.3663	0.8037	-1.7731	-0.6485	-1.3325	-2.5726	-0.1131	-0.0618	-1.9772	-0.7854	0.6037	-0.6547	-0.2150	-0.4018	-0.5551	0.1330	0.2971	0.3744	-0.2064	-0.8974	0.4133	0.7643	-0.4793	-1.0997	-0.6461	
