Arquivo: c:\arq\medidas\BBA_1303_063127\BBA_AMP11B_V.dat
Data: 1303	 Hora:  0759
Comentário: 
NomeParametro	 ValorParametro
Nmedias	5
PausaCorretora	3000
PausaShunt	2000
PausaLeitura	500
NumCiclos	3
 NPassosCor	9
DeltaShunt	1.50
TetaIni	-0.20
TetaFim	0.20
I[mA]	  23.5
ACV09A	DeltaPos^2	AMP11B	AMP01B_0	AMP02A_0	AMP02B_0	AMP03A_0	AMP03B_0	AMP04A_0	AMP04B_0	AMP05A_0	AMP05B_0	AMP06A_0	AMP06B_0	AMP07A_0	AMP07B_0	AMP08A_0	AMP08B_0	AMP09A_0	AMP09B_0	AMP10A_0	AMP10B_0	AMP11A_0	AMU11A_0	AMU11B_0	AMP11B_0	AMP12A_0	AMP12B_0	AMP01A_0	AMP01B_1	AMP02A_1	AMP02B_1	AMP03A_1	AMP03B_1	AMP04A_1	AMP04B_1	AMP05A_1	AMP05B_1	AMP06A_1	AMP06B_1	AMP07A_1	AMP07B_1	AMP08A_1	AMP08B_1	AMP09A_1	AMP09B_1	AMP10A_1	AMP10B_1	AMP11A_1	AMU11A_1	AMU11B_1	AMP11B_1	AMP12A_1	AMP12B_1	AMP01A_1	
-0.2000	 4.57391365099130E-0003	3.9173	-0.1285	-0.4533	-0.9452	-1.5105	3.5024	1.9720	0.5102	1.2776	-0.6613	0.4120	-0.0187	1.7855	-0.2593	0.1184	-1.4767	-1.8699	1.0912	1.7118	1.9735	-0.0071	2.0339	-0.0834	3.9173	-0.2282	0.7116	1.0145	-0.0406	-0.4171	-0.9887	-1.6060	3.5264	2.0249	0.5882	1.3691	-0.7760	0.3355	-0.0337	1.8102	-0.2076	0.1247	-1.5400	-1.9780	1.1656	1.7793	2.0363	-0.0054	2.0743	-0.1681	4.0003	-0.3108	0.6584	0.9818	
-0.1500	 2.77870954149293E-0003	3.1181	-0.1767	-0.3565	-0.6188	-1.0279	3.1723	1.6257	0.3269	1.1965	-0.2955	0.5647	-0.2131	1.3700	-0.0969	0.3414	-1.1420	-1.4374	0.8594	1.4559	1.6647	-0.0053	1.7965	0.2965	3.1181	0.0618	0.6976	0.8158	-0.1085	-0.3284	-0.6533	-1.1026	3.1910	1.6670	0.3874	1.2677	-0.3849	0.5051	-0.2247	1.3886	-0.0568	0.3462	-1.1918	-1.5217	0.9170	1.5089	1.7140	-0.0242	1.8280	0.2304	3.1845	-0.0026	0.6560	0.7901	
-0.1000	 1.38215082242793E-0003	2.2910	-0.2282	-0.2592	-0.2863	-0.5342	2.8344	1.2723	0.1393	1.1117	0.0787	0.7222	-0.4097	0.9475	0.0648	0.5670	-0.8005	-0.9936	0.6226	1.1944	1.3487	-0.0213	1.5536	0.6839	2.2910	0.3577	0.6851	0.6156	-0.1801	-0.2395	-0.3106	-0.5869	2.8473	1.3020	0.1823	1.1618	0.0156	0.6805	-0.4180	0.9604	0.0937	0.5705	-0.8356	-1.0528	0.6631	1.2320	1.3838	-0.0028	1.5755	0.6374	2.3385	0.3125	0.6556	0.5977	
-0.0500	 4.32000890509680E-0004	1.4406	-0.2825	-0.1624	0.0503	-0.0323	2.4909	0.9140	-0.0517	1.0247	0.4586	0.8824	-0.6081	0.5181	0.2272	0.7947	-0.4529	-0.5403	0.3817	0.9280	1.0262	0.0077	1.3051	1.0760	1.4406	0.6584	0.6733	0.4146	-0.2557	-0.1512	0.0369	-0.0617	2.4980	0.9297	-0.0277	1.0528	0.4234	0.8588	-0.6127	0.5257	0.2434	0.7968	-0.4724	-0.5733	0.4043	0.9489	1.0463	-0.0142	1.3175	1.0501	1.4675	0.6330	0.6570	0.4042	
0.0000	 1.68344961820069E-0005	0.5761	-0.3397	-0.0657	0.3905	0.4750	2.1419	0.5510	-0.2447	0.9359	0.8414	1.0441	-0.8070	0.0861	0.3895	1.0234	-0.1017	-0.0817	0.1390	0.6583	0.6990	-0.0270	1.0540	1.4707	0.5761	0.9626	0.6640	0.2128	-0.3343	-0.0637	0.3880	0.4694	2.1435	0.5558	-0.2399	0.9417	0.8349	1.0393	-0.8077	0.0877	0.3924	1.0241	-0.1055	-0.0885	0.1432	0.6624	0.7027	-0.0261	1.0564	1.4659	0.5810	0.9578	0.6607	0.2111	
0.0500	 1.62201871876625E-0004	-0.2933	-0.3994	0.0297	0.7311	0.9837	1.7904	0.1882	-0.4380	0.8474	1.2259	1.2069	-1.0061	-0.3478	0.5507	1.2526	0.2506	0.3780	-0.1040	0.3882	0.3696	0.0151	0.7997	1.8666	-0.2933	1.2687	0.6560	0.0131	-0.4160	0.0228	0.7390	1.0016	1.7861	0.1785	-0.4527	0.8302	1.2473	1.2215	-1.0030	-0.3517	0.5413	1.2509	0.2627	0.3985	-0.1178	0.3754	0.3575	0.0050	0.7918	1.8826	-0.3100	1.2843	0.6663	0.0195	
0.1000	 8.60378202953524E-0004	-1.1627	-0.4624	0.1240	1.0708	1.4893	1.4373	-0.1748	-0.6312	0.7587	1.6084	1.3687	-1.2048	-0.7819	0.7123	1.4808	0.6026	0.8380	-0.3455	0.1187	0.0392	-0.0052	0.5428	2.2611	-1.1627	1.5745	0.6494	-0.1847	-0.5010	0.1077	1.0895	1.5302	1.4270	-0.1976	-0.6650	0.7187	1.6575	1.4023	-1.1976	-0.7903	0.6890	1.4770	0.6300	0.8843	-0.3768	0.0894	0.0111	0.0146	0.5247	2.2977	-1.1995	1.6105	0.6732	-0.1695	
0.1500	 2.07190644491201E-0003	-2.0205	-0.5272	0.2157	1.4069	1.9915	1.0863	-0.5357	-0.8228	0.6709	1.9865	1.5295	-1.4028	-1.2122	0.8735	1.7077	0.9513	1.2933	-0.5826	-0.1482	-0.2902	-0.0108	0.2853	2.6505	-2.0205	1.8790	0.6446	-0.3795	-0.5881	0.1897	1.4359	2.0541	1.0714	-0.5707	-0.8756	0.6085	2.0624	1.5812	-1.3913	-1.2258	0.8370	1.7019	0.9937	1.3656	-0.6312	-0.1937	-0.3339	-0.0206	0.2574	2.7065	-2.0771	1.9345	0.6820	-0.3551	
0.2000	 3.70053942816934E-0003	-2.8616	-0.5952	0.3045	1.7395	2.4868	0.7357	-0.8934	-1.0122	0.5847	2.3595	1.6880	-1.5991	-1.6389	1.0334	1.9326	1.2962	1.7427	-0.8148	-0.4117	-0.6189	-0.0014	0.0274	3.0351	-2.8616	2.1818	0.6419	-0.5702	-0.6771	0.2697	1.7775	2.5704	0.7155	-0.9410	-1.0829	0.5008	2.4608	1.7568	-1.5840	-1.6573	0.9852	1.9251	1.3527	1.8396	-0.8798	-0.4727	-0.6767	-0.0185	-0.0094	3.1094	-2.9360	2.2557	0.6922	-0.5372	
