Arquivo: c:\arq\medidas\BBA_1303_063127\BBA_AMP10B_V.dat
Data: 1303	 Hora:  0743
Comentário: 
NomeParametro	 ValorParametro
Nmedias	5
PausaCorretora	3000
PausaShunt	2000
PausaLeitura	500
NumCiclos	3
 NPassosCor	9
DeltaShunt	3.00
TetaIni	-0.20
TetaFim	0.20
I[mA]	  27.1
ACV11A	DeltaPos^2	AMP10B	AMP01B_0	AMP02A_0	AMP02B_0	AMP03A_0	AMP03B_0	AMP04A_0	AMP04B_0	AMP05A_0	AMP05B_0	AMP06A_0	AMP06B_0	AMP07A_0	AMP07B_0	AMP08A_0	AMP08B_0	AMP09A_0	AMP09B_0	AMP10A_0	AMP10B_0	AMP11A_0	AMU11A_0	AMU11B_0	AMP11B_0	AMP12A_0	AMP12B_0	AMP01A_0	AMP01B_1	AMP02A_1	AMP02B_1	AMP03A_1	AMP03B_1	AMP04A_1	AMP04B_1	AMP05A_1	AMP05B_1	AMP06A_1	AMP06B_1	AMP07A_1	AMP07B_1	AMP08A_1	AMP08B_1	AMP09A_1	AMP09B_1	AMP10A_1	AMP10B_1	AMP11A_1	AMU11A_1	AMU11B_1	AMP11B_1	AMP12A_1	AMP12B_1	AMP01A_1	
-0.2000	 1.45979908925821E-0003	-0.9215	-2.6375	-1.4258	0.4994	1.5035	2.6450	0.2392	-1.8162	-1.3668	2.8004	2.6701	0.2914	0.8962	-1.6303	0.0690	0.5510	1.5680	-0.1823	-0.1408	-0.9215	-0.0153	-0.7640	2.2055	0.9773	2.2646	2.2077	1.8507	-2.6905	-1.4508	0.5186	1.5512	2.6396	0.2148	-1.8605	-1.4217	2.8606	2.7136	0.3057	0.8924	-1.6665	0.0600	0.5833	1.6264	-0.2155	-0.1751	-0.9625	-0.0082	-0.8157	2.2426	0.9432	2.3091	2.2412	1.8765	
-0.1500	 8.47496094388735E-0004	-0.5480	-2.1043	-1.1058	0.4785	1.2711	2.5223	0.3069	-1.4519	-0.8296	2.3496	2.2942	0.0330	0.7020	-1.1578	0.2949	0.4010	1.1861	-0.1034	0.0462	-0.5480	-0.0154	-0.3456	2.0422	0.8700	1.9674	1.8477	1.4631	-2.1451	-1.1254	0.4930	1.3070	2.5194	0.2881	-1.4856	-0.8718	2.3959	2.3275	0.0445	0.7010	-1.1860	0.2869	0.4246	1.2300	-0.1273	0.0213	-0.5797	-0.0274	-0.3851	2.0705	0.8456	2.0017	1.8734	1.4828	
-0.1000	 3.54688089145701E-0004	-0.1624	-1.5501	-0.7747	0.4581	1.0319	2.3939	0.3742	-1.0752	-0.2732	1.8835	1.9035	-0.2365	0.4983	-0.6656	0.5306	0.2493	0.7952	-0.0275	0.2370	-0.1624	-0.0345	0.0878	1.8712	0.7571	1.6574	1.4738	1.0623	-1.5767	-0.7874	0.4671	1.0553	2.3928	0.3630	-1.0971	-0.3008	1.9132	1.9248	-0.2286	0.4985	-0.6844	0.5245	0.2644	0.8231	-0.0417	0.2207	-0.1830	-0.0188	0.0628	1.8898	0.7417	1.6802	1.4908	1.0754	
-0.0500	 6.36517011955130E-0005	0.2319	-0.9821	-0.4354	0.4385	0.7885	2.2606	0.4426	-0.6900	0.2958	1.4067	1.5032	-0.5138	0.2861	-0.1600	0.7731	0.0973	0.3981	0.0453	0.4278	0.2319	-0.0312	0.5319	1.6950	0.6382	1.3388	1.0909	0.6517	-0.9934	-0.4413	0.4419	0.7984	2.2615	0.4389	-0.6993	0.2840	1.4189	1.5127	-0.5098	0.2870	-0.1686	0.7700	0.1032	0.4100	0.0407	0.4220	0.2232	-0.0265	0.5215	1.7034	0.6332	1.3489	1.0982	0.6576	
0.0000	 1.14693386689135E-0005	0.6319	-0.4034	-0.0912	0.4198	0.5430	2.1236	0.5109	-0.2995	0.8709	0.9231	1.0969	-0.7964	0.0680	0.3537	1.0210	-0.0550	-0.0023	0.1158	0.6202	0.6319	-0.0163	0.9827	1.5145	0.5155	1.0140	0.7006	0.2353	-0.3991	-0.0896	0.4174	0.5389	2.1262	0.5142	-0.2961	0.8749	0.9174	1.0932	-0.7968	0.0703	0.3559	1.0206	-0.0583	-0.0071	0.1207	0.6243	0.6356	-0.0309	0.9873	1.5126	0.5198	1.0110	0.6984	0.2341	
0.0500	 2.07331511092257E-0004	1.0348	0.1776	0.2561	0.4021	0.2969	1.9840	0.5784	0.0930	1.4492	0.4371	0.6867	-1.0816	-0.1532	0.8719	1.2711	-0.2066	-0.4027	0.1838	0.8121	1.0348	-0.0129	1.4345	1.3327	0.3887	0.6854	0.3069	-0.1836	0.1972	0.2649	0.3941	0.2789	1.9884	0.5887	0.1094	1.4691	0.4132	0.6704	-1.0863	-0.1506	0.8841	1.2735	-0.2192	-0.4245	0.1984	0.8261	1.0504	-0.0058	1.4547	1.3202	0.4036	0.6700	0.2949	-0.1928	
0.1000	 6.42778128108115E-0004	1.4361	0.7589	0.6031	0.3854	0.0516	1.8427	0.6448	0.4850	2.0244	-0.0503	0.2765	-1.3667	-0.3755	1.3889	1.5210	-0.3577	-0.8039	0.2508	1.0036	1.4361	-0.0263	1.8866	1.1524	0.2591	0.3568	-0.0877	-0.6053	0.7941	0.6192	0.3720	0.0200	1.8493	0.6623	0.5136	2.0601	-0.0919	0.2474	-1.3755	-0.3722	1.4117	1.5266	-0.3793	-0.8417	0.2747	1.0273	1.4638	-0.0146	1.9213	1.1288	0.2838	0.3285	-0.1091	-0.6221	
0.1500	 1.30472349774772E-0003	1.8337	1.3350	0.9486	0.3700	-0.1911	1.7011	0.7103	0.8734	2.5914	-0.5339	-0.1309	-1.6493	-0.5960	1.8999	1.7686	-0.5084	-1.2014	0.3175	1.1936	1.8337	-0.0268	2.3330	0.9728	0.1284	0.0304	-0.4797	-1.0246	1.3851	0.9722	0.3510	-0.2364	1.7093	0.7348	0.9147	2.6421	-0.5930	-0.1721	-1.6621	-0.5916	1.9330	1.7773	-0.5387	-1.2554	0.3510	1.2273	1.8727	0.0121	2.3825	0.9391	0.1626	-0.0104	-0.5103	-1.0484	
0.2000	 2.12171015113040E-0003	2.2238	1.9013	1.2895	0.3546	-0.4302	1.5600	0.7753	1.2563	3.1459	-1.0106	-0.5328	-1.9262	-0.8111	2.3996	2.0118	-0.6579	-1.5941	0.3859	1.3823	2.2238	0.0003	2.7696	0.7971	-0.0014	-0.2902	-0.8661	-1.4375	1.9653	1.3190	0.3304	-0.4880	1.5700	0.8065	1.3096	3.2096	-1.0857	-0.5857	-1.9424	-0.8053	2.4420	2.0215	-0.6969	-1.6631	0.4286	1.4249	2.2735	-0.0063	2.8322	0.7538	0.0425	-0.3425	-0.9059	-1.4677	
