Arquivo: c:\arq\medidas\BBA_1303_063127\BBA_AMP07A_V.dat
Data: 1303	 Hora:  0716
Comentário: 
NomeParametro	 ValorParametro
Nmedias	5
PausaCorretora	3000
PausaShunt	2000
PausaLeitura	500
NumCiclos	3
 NPassosCor	9
DeltaShunt	1.50
TetaIni	-0.20
TetaFim	0.20
I[mA]	  69.4
ACV09B	DeltaPos^2	AMP07A	AMP01B_0	AMP02A_0	AMP02B_0	AMP03A_0	AMP03B_0	AMP04A_0	AMP04B_0	AMP05A_0	AMP05B_0	AMP06A_0	AMP06B_0	AMP07A_0	AMP07B_0	AMP08A_0	AMP08B_0	AMP09A_0	AMP09B_0	AMP10A_0	AMP10B_0	AMP11A_0	AMU11A_0	AMU11B_0	AMP11B_0	AMP12A_0	AMP12B_0	AMP01A_0	AMP01B_1	AMP02A_1	AMP02B_1	AMP03A_1	AMP03B_1	AMP04A_1	AMP04B_1	AMP05A_1	AMP05B_1	AMP06A_1	AMP06B_1	AMP07A_1	AMP07B_1	AMP08A_1	AMP08B_1	AMP09A_1	AMP09B_1	AMP10A_1	AMP10B_1	AMP11A_1	AMU11A_1	AMU11B_1	AMP11B_1	AMP12A_1	AMP12B_1	AMP01A_1	
-0.2000	 4.90097898049308E-0003	-2.0410	0.5329	0.9652	1.6695	1.9760	0.5020	-0.7444	-0.2297	1.7106	1.3962	0.8701	-2.1313	-2.0410	2.0288	2.3918	0.9290	0.7290	-1.6892	-0.6715	-0.0531	-0.1402	0.8796	2.6772	-3.0247	1.5391	-0.1245	-1.3842	0.6352	1.0446	1.7134	2.0001	0.4250	-0.7844	-0.1813	1.8092	1.3549	0.8134	-2.2139	-2.1482	2.0901	2.4547	0.9985	0.8030	-1.8006	-0.7367	-0.0438	-0.1160	0.9295	2.6985	-3.1672	1.5194	-0.2009	-1.4916	
-0.1500	 2.82392923140451E-0003	-1.5286	0.3021	0.7047	1.3637	1.6290	0.9040	-0.4435	-0.2498	1.4991	1.2847	0.9278	-1.8029	-1.5286	1.6182	2.0561	0.6863	0.5464	-1.2479	-0.3554	0.1098	-0.1163	0.8964	2.4039	-2.1703	1.4158	0.0778	-0.9924	0.3794	0.7654	1.3976	1.6477	0.8453	-0.4723	-0.2131	1.5739	1.2553	0.8851	-1.8657	-1.6094	1.6650	2.1045	0.7395	0.6025	-1.3329	-0.4050	0.1167	-0.1225	0.9345	2.4198	-2.2806	1.4016	0.0198	-1.0744	
-0.1000	 1.24612187365247E-0003	-0.9997	0.0632	0.4359	1.0490	1.2723	1.3142	-0.1318	-0.2686	1.2843	1.1709	0.9855	-1.4652	-0.9997	1.1970	1.7111	0.4357	0.3567	-0.7918	-0.0308	0.2758	-0.1141	0.9122	2.1222	-1.2817	1.2913	0.2871	-0.5870	0.1144	0.4763	1.0716	1.2853	1.2750	-0.1510	-0.2446	1.3332	1.1519	0.9576	-1.5070	-1.0539	1.2283	1.7427	0.4708	0.3940	-0.8488	-0.0639	0.2804	-0.1222	0.9373	2.1331	-1.3560	1.2817	0.2487	-0.6418	
-0.0500	 2.84132783458672E-0004	-0.4598	-0.1821	0.1609	0.7267	0.9087	1.7319	0.1876	-0.2867	1.0663	1.0534	1.0434	-1.1208	-0.4598	0.7670	1.3576	0.1782	0.1608	-0.3242	0.3012	0.4438	-0.0996	0.9271	1.8334	-0.3685	1.1642	0.5014	-0.1732	-0.1575	0.1802	0.7375	0.9150	1.7137	0.1782	-0.2756	1.0897	1.0442	1.0306	-1.1407	-0.4856	0.7820	1.3730	0.1951	0.1790	-0.3513	0.2853	0.4460	-0.1393	0.9391	1.8390	-0.4043	1.1598	0.4830	-0.1992	
0.0000	 4.38432370858308E-0006	0.0879	-0.4321	-0.1186	0.3986	0.5374	2.1538	0.5109	-0.3039	0.8471	0.9317	1.1002	-0.7717	0.0879	0.3319	0.9993	-0.0838	-0.0398	0.1508	0.6382	0.6147	-0.1079	0.9421	1.5394	0.5585	1.0348	0.7184	0.2469	-0.4351	-0.1211	0.3972	0.5364	2.1555	0.5119	-0.3056	0.8442	0.9329	1.1017	-0.7692	0.0915	0.3300	0.9975	-0.0859	-0.0419	0.1543	0.6403	0.6149	-0.1068	0.9408	1.5390	0.5626	1.0353	0.7206	0.2501	
0.0500	 4.39326273427247E-0004	0.6387	-0.6852	-0.4009	0.0672	0.1611	2.5764	0.8382	-0.3194	0.6281	0.8072	1.1556	-0.4197	0.6387	-0.1060	0.6376	-0.3487	-0.2435	0.6302	0.9794	0.7880	-0.1060	0.9571	1.2413	1.4908	0.9040	0.9373	0.6719	-0.7159	-0.4249	0.0536	0.1538	2.5981	0.8498	-0.3334	0.5994	0.8184	1.1722	-0.3949	0.6717	-0.1243	0.6185	-0.3695	-0.2658	0.6643	0.9993	0.7857	-0.1262	0.9426	1.2348	1.5345	0.9091	0.9602	0.7042	
0.1000	 1.57484853984594E-0003	1.1908	-0.9382	-0.6840	-0.2662	-0.2172	2.9967	1.1672	-0.3330	0.4109	0.6795	1.2099	-0.0673	1.1908	-0.5446	0.2749	-0.6142	-0.4485	1.1111	1.3214	0.9630	-0.0951	0.9735	0.9399	2.4179	0.7712	1.1570	1.0984	-0.9963	-0.7293	-0.2920	-0.2319	3.0391	1.1893	-0.3594	0.3560	0.7007	1.2408	-0.0201	1.2512	-0.5794	0.2389	-0.6541	-0.4909	1.1758	1.3587	0.9586	-0.1038	0.9462	0.9267	2.5000	0.7813	1.2003	1.1601	
0.1500	 3.33862533057314E-0003	1.7387	-1.1893	-0.9662	-0.5997	-0.5962	3.4140	1.4956	-0.3445	0.1959	0.5495	1.2618	0.2835	1.7387	-0.9811	-0.0868	-0.8797	-0.6528	1.5895	1.6621	1.1391	-0.1256	0.9923	0.6371	3.3291	0.6366	1.3751	1.5228	-1.2740	-1.0322	-0.6376	-0.6178	3.4753	1.5281	-0.3831	0.1160	0.5800	1.3068	0.3518	1.8271	-1.0314	-0.1391	-0.9382	-0.7151	1.6835	1.7171	1.1331	-0.1139	0.9527	0.6177	3.4470	0.6510	1.4377	1.6123	
0.2000	 5.64000942701838E-0003	2.2800	-1.4375	-1.2450	-0.9313	-0.9736	3.8246	1.8222	-0.3543	-0.0155	0.4176	1.3116	0.6309	2.2800	-1.4131	-0.4457	-1.1423	-0.8552	2.0621	2.0004	1.3160	-0.1158	1.0133	0.3335	4.2164	0.5004	1.5910	1.9428	-1.5480	-1.3312	-0.9803	-1.0018	3.9037	1.8647	-0.4044	-0.1199	0.4576	1.3700	0.7199	2.3941	-1.4775	-0.5137	-1.2188	-0.9369	2.1838	2.0714	1.3084	-0.1109	0.9617	0.3079	4.3665	0.5190	1.6726	2.0591	
