Arquivo: c:\arq\medidas\BBA_1303_063127\BBA_AMP12B_V.dat
Data: 1303	 Hora:  0807
Comentário: 
NomeParametro	 ValorParametro
Nmedias	5
PausaCorretora	3000
PausaShunt	2000
PausaLeitura	500
NumCiclos	3
 NPassosCor	9
DeltaShunt	3.00
TetaIni	-0.20
TetaFim	0.20
I[mA]	  19.0
ACV07B	DeltaPos^2	AMP12B	AMP01B_0	AMP02A_0	AMP02B_0	AMP03A_0	AMP03B_0	AMP04A_0	AMP04B_0	AMP05A_0	AMP05B_0	AMP06A_0	AMP06B_0	AMP07A_0	AMP07B_0	AMP08A_0	AMP08B_0	AMP09A_0	AMP09B_0	AMP10A_0	AMP10B_0	AMP11A_0	AMU11A_0	AMU11B_0	AMP11B_0	AMP12A_0	AMP12B_0	AMP01A_0	AMP01B_1	AMP02A_1	AMP02B_1	AMP03A_1	AMP03B_1	AMP04A_1	AMP04B_1	AMP05A_1	AMP05B_1	AMP06A_1	AMP06B_1	AMP07A_1	AMP07B_1	AMP08A_1	AMP08B_1	AMP09A_1	AMP09B_1	AMP10A_1	AMP10B_1	AMP11A_1	AMU11A_1	AMU11B_1	AMP11B_1	AMP12A_1	AMP12B_1	AMP01A_1	
-0.2000	 3.84478981276245E-0003	2.3568	-2.7878	-1.6387	0.1906	1.1170	3.0230	0.5711	-1.7763	-1.4977	2.6178	2.6685	0.5817	1.3880	-1.9757	-0.6775	-1.0680	-0.5854	2.0784	1.4688	-0.2974	-0.0078	-0.6778	1.9374	1.8336	2.1185	2.3568	2.1944	-2.8749	-1.7072	0.1504	1.0938	3.0897	0.6060	-1.8158	-1.5805	2.6482	2.7145	0.6532	1.4785	-2.0798	-0.7468	-1.0863	-0.5728	2.1317	1.4797	-0.3554	-0.0154	-0.7570	1.9807	1.9625	2.1799	2.4213	2.2885	
-0.1500	 2.59607584533731E-0003	1.9692	-2.2302	-1.2750	0.2447	0.9807	2.8145	0.5613	-1.4286	-0.9401	2.2178	2.3009	0.2594	1.0831	-1.4322	-0.2790	-0.8308	-0.4487	1.6206	1.2700	-0.0811	0.0025	-0.2870	1.8468	1.5258	1.8658	1.9692	1.7349	-2.3024	-1.3311	0.2123	0.9622	2.8686	0.5903	-1.4613	-1.0086	2.2433	2.3390	0.3183	1.1575	-1.5184	-0.3359	-0.8463	-0.4382	1.6641	1.2789	-0.1285	-0.0071	-0.3518	1.8822	1.6305	1.9158	2.0221	1.8121	
-0.1000	 1.46605510505231E-0003	1.5592	-1.6393	-0.8915	0.3028	0.8387	2.5923	0.5505	-1.0628	-0.3515	1.7970	1.9126	-0.0820	0.7570	-0.8559	0.1405	-0.5835	-0.3084	1.1385	1.0620	0.1491	0.0021	0.1256	1.7488	1.1978	1.5967	1.5592	1.2502	-1.6936	-0.9334	0.2788	0.8252	2.6334	0.5711	-1.0878	-0.4033	1.8161	1.9413	-0.0379	0.8127	-0.9208	0.0977	-0.5952	-0.3007	1.1718	1.0693	0.1135	-0.0236	0.0771	1.7754	1.2760	1.6344	1.5990	1.3079	
-0.0500	 6.11248216509169E-0004	1.1416	-1.0375	-0.5011	0.3635	0.6964	2.3646	0.5370	-0.6916	0.2460	1.3707	1.5172	-0.4315	0.4216	-0.2672	0.5673	-0.3344	-0.1683	0.6495	0.8527	0.3836	-0.0020	0.5452	1.6479	0.8604	1.3223	1.1416	0.7564	-1.0724	-0.5281	0.3481	0.6882	2.3914	0.5501	-0.7075	0.2126	1.3829	1.5362	-0.4029	0.4578	-0.3092	0.5396	-0.3420	-0.1635	0.6710	0.8573	0.3607	-0.0100	0.5142	1.6650	0.9108	1.3462	1.1678	0.7938	
0.0000	 1.02528669661393E-0004	0.7161	-0.4232	-0.1041	0.4260	0.5534	2.1311	0.5225	-0.3140	0.8511	0.9376	1.1159	-0.7875	0.0783	0.3321	1.0012	-0.0818	-0.0281	0.1529	0.6405	0.6230	0.0041	0.9721	1.5436	0.5152	1.0415	0.7161	0.2550	-0.4381	-0.1151	0.4197	0.5505	2.1422	0.5280	-0.3209	0.8375	0.9426	1.1234	-0.7760	0.0931	0.3149	0.9899	-0.0848	-0.0261	0.1617	0.6426	0.6136	-0.0271	0.9597	1.5506	0.5351	1.0509	0.7269	0.2704	
0.0500	 2.22371179672359E-0005	0.2852	0.1952	0.2972	0.4900	0.4095	1.8927	0.5073	0.0662	1.4618	0.5012	0.7085	-1.1479	-0.2715	0.9383	1.4393	0.1734	0.1131	-0.3488	0.4279	0.8657	0.0039	1.4016	1.4377	0.1638	0.7560	0.2852	-0.2507	0.2020	0.3027	0.4929	0.4123	1.8883	0.5042	0.0693	1.4677	0.4990	0.7050	-1.1532	-0.2781	0.9456	1.4446	0.1748	0.1122	-0.3531	0.4269	0.8703	-0.0142	1.4080	1.4341	0.1534	0.7511	0.2802	-0.2580	
0.1000	 3.90695692102063E-0004	-0.1477	0.8151	0.6989	0.5545	0.2661	1.6531	0.4912	0.4474	2.0701	0.0623	0.3004	-1.5082	-0.6215	1.5430	1.8770	0.4296	0.2554	-0.8525	0.2130	1.1089	0.0056	1.8321	1.3318	-0.1897	0.4697	-0.1477	-0.7596	0.8429	0.7207	0.5670	0.2736	1.6325	0.4806	0.4598	2.0966	0.0518	0.2855	-1.5309	-0.6503	1.5763	1.8988	0.4358	0.2517	-0.8697	0.2094	1.1270	-0.0046	1.8580	1.3183	-0.2305	0.4497	-0.1683	-0.7895	
0.1500	 1.15454255419204E-0003	-0.5766	1.4280	1.0977	0.6193	0.1232	1.4139	0.4760	0.8254	2.6693	-0.3743	-0.1050	-1.8645	-0.9681	2.1405	2.3095	0.6851	0.3988	-1.3528	-0.0019	1.3490	-0.0101	2.2577	1.2270	-0.5414	0.1859	-0.5766	-1.2635	1.4762	1.1351	0.6411	0.1366	1.3775	0.4573	0.8473	2.7146	-0.3916	-0.1305	-1.9036	-1.0178	2.1970	2.3472	0.6956	0.3924	-1.3830	-0.0080	1.3802	-0.0040	2.3011	1.2035	-0.6124	0.1518	-0.6122	-1.3149	
0.2000	 2.23955275508275E-0003	-0.9995	2.0298	1.4895	0.6825	-0.0184	1.1773	0.4608	1.1988	3.2550	-0.8053	-0.5060	-2.2135	-1.3068	2.7231	2.7336	0.9384	0.5436	-1.8464	-0.2154	1.5847	-0.0011	2.6737	1.1243	-0.8874	-0.0938	-0.9995	-1.7591	2.0964	1.5418	0.7131	0.0004	1.1259	0.4345	1.2295	3.3169	-0.8293	-0.5415	-2.2681	-1.3757	2.8023	2.7855	0.9532	0.5347	-1.8882	-0.2234	1.6289	0.0174	2.7340	1.0911	-0.9870	-0.1415	-1.0489	-1.8306	
