Arquivo: c:\arq\medidas\BBA_1303_063127\BBA_AMP06A_V.dat
Data: 1303	 Hora:  0708
Comentário: 
NomeParametro	 ValorParametro
Nmedias	5
PausaCorretora	3000
PausaShunt	2000
PausaLeitura	500
NumCiclos	3
 NPassosCor	9
DeltaShunt	3.00
TetaIni	-0.20
TetaFim	0.20
I[mA]	 161.2
ACV11A	DeltaPos^2	AMP06A	AMP01B_0	AMP02A_0	AMP02B_0	AMP03A_0	AMP03B_0	AMP04A_0	AMP04B_0	AMP05A_0	AMP05B_0	AMP06A_0	AMP06B_0	AMP07A_0	AMP07B_0	AMP08A_0	AMP08B_0	AMP09A_0	AMP09B_0	AMP10A_0	AMP10B_0	AMP11A_0	AMU11A_0	AMU11B_0	AMP11B_0	AMP12A_0	AMP12B_0	AMP01A_0	AMP01B_1	AMP02A_1	AMP02B_1	AMP03A_1	AMP03B_1	AMP04A_1	AMP04B_1	AMP05A_1	AMP05B_1	AMP06A_1	AMP06B_1	AMP07A_1	AMP07B_1	AMP08A_1	AMP08B_1	AMP09A_1	AMP09B_1	AMP10A_1	AMP10B_1	AMP11A_1	AMU11A_1	AMU11B_1	AMP11B_1	AMP12A_1	AMP12B_1	AMP01A_1	
-0.2000	 1.36732037887515E-0003	2.5917	-2.5373	-1.3785	0.4862	1.4613	2.6247	0.2334	-1.7428	-1.2553	2.7077	2.5917	0.2449	0.8345	-1.6030	0.0979	0.6006	1.6100	-0.2808	-0.1924	-0.9013	-0.6450	-0.7115	2.2013	0.9551	2.2243	2.1392	1.7542	-2.5815	-1.3963	0.5108	1.5124	2.6097	0.2042	-1.7827	-1.3010	2.7667	2.6297	0.2836	0.8789	-1.6660	0.0604	0.6015	1.6352	-0.2657	-0.1981	-0.9415	-0.6313	-0.7583	2.2380	0.9046	2.2660	2.1661	1.7707	
-0.1500	 8.25043816318069E-0004	2.2256	-2.0172	-1.0629	0.4712	1.2425	2.4989	0.2934	-1.3896	-0.7339	2.2755	2.2256	-0.0119	0.6382	-1.1363	0.3213	0.4513	1.2330	-0.1986	-0.0053	-0.5361	-0.6335	-0.3069	2.0464	0.8363	1.9361	1.7860	1.3734	-2.0525	-1.0777	0.4895	1.2809	2.4888	0.2711	-1.4204	-0.7700	2.3209	2.2549	0.0184	0.6726	-1.1857	0.2923	0.4514	1.2527	-0.1867	-0.0096	-0.5675	-0.6204	-0.3434	2.0750	0.8003	1.9685	1.8073	1.3872	
-0.1000	 3.52610427597224E-0004	1.8473	-1.4797	-0.7386	0.4565	1.0173	2.3684	0.3541	-1.0261	-0.1963	1.8294	1.8473	-0.2775	0.4350	-0.6534	0.5531	0.2995	0.8467	-0.1176	0.1851	-0.1606	-0.6582	0.1097	1.8847	0.7141	1.6372	1.4214	0.9816	-1.5031	-0.7481	0.4680	1.0422	2.3621	0.3402	-1.0464	-0.2201	1.8592	1.8665	-0.2578	0.4564	-0.6862	0.5345	0.2997	0.8594	-0.1097	0.1823	-0.1812	-0.6328	0.0861	1.9040	0.6909	1.6588	1.4357	0.9909	
-0.0500	 6.57427800948855E-0005	1.4604	-0.9300	-0.4071	0.4422	0.7887	2.2348	0.4151	-0.6553	0.3519	1.3743	1.4604	-0.5499	0.2230	-0.1593	0.7910	0.1478	0.4556	-0.0388	0.3768	0.2224	-0.6523	0.5356	1.7191	0.5869	1.3310	1.0490	0.5821	-0.9403	-0.4110	0.4475	0.7996	2.2316	0.4090	-0.6640	0.3415	1.3875	1.4690	-0.5416	0.2325	-0.1731	0.7833	0.1479	0.4611	-0.0357	0.3752	0.2133	-0.6297	0.5260	1.7276	0.5767	1.3401	1.0550	0.5857	
0.0000	 8.40449207931556E-0006	1.0678	-0.3709	-0.0706	0.4287	0.5582	2.0970	0.4760	-0.2793	0.9053	0.9127	1.0678	-0.8270	0.0068	0.3425	1.0339	-0.0047	0.0604	0.0374	0.5689	0.6105	-0.6351	0.9675	1.5501	0.4561	1.0187	0.6698	0.1766	-0.3675	-0.0690	0.4278	0.5550	2.0972	0.4776	-0.2764	0.9091	0.9085	1.0648	-0.8307	0.0033	0.3476	1.0370	-0.0046	0.0589	0.0354	0.5688	0.6139	-0.6215	0.9720	1.5475	0.4584	1.0154	0.6676	0.1749	
0.0500	 1.91685047366076E-0004	0.6715	0.1907	0.2687	0.4160	0.3265	1.9569	0.5364	0.0987	1.4622	0.4487	0.6715	-1.1067	-0.2127	0.8485	1.2784	-0.1573	-0.3357	0.1125	0.7618	1.0023	-0.6443	1.4009	1.3786	0.3217	0.7027	0.2871	-0.2315	0.2079	0.2762	0.4082	0.3089	1.9610	0.5458	0.1137	1.4797	0.4271	0.6569	-1.1220	-0.2297	0.8721	1.2927	-0.1569	-0.3441	0.1057	0.7632	1.0176	-0.6291	1.4195	1.3655	0.3371	0.6867	0.2765	-0.2383	
0.1000	 6.10241818107957E-0004	0.2752	0.7527	0.6077	0.4040	0.0958	1.8158	0.5957	0.4761	2.0162	-0.0169	0.2752	-1.3858	-0.4326	1.3532	1.5233	-0.3094	-0.7319	0.1869	0.9540	1.3920	-0.6319	1.8346	1.2088	0.1856	0.3867	-0.0964	-0.6420	0.7827	0.6207	0.3899	0.0639	1.8228	0.6132	0.5027	2.0473	-0.0554	0.2494	-1.4127	-0.4632	1.3959	1.5486	-0.3089	-0.7466	0.1753	0.9567	1.4194	-0.6379	1.8670	1.1847	0.2133	0.3582	-0.1153	-0.6543	
0.1500	 1.22746397399730E-0003	-0.1189	1.3108	0.9453	0.3932	-0.1334	1.6736	0.6547	0.8509	2.5630	-0.4796	-0.1189	-1.6628	-0.6502	1.8530	1.7650	-0.4608	-1.1255	0.2608	1.1450	1.7790	-0.6263	2.2633	1.0398	0.0486	0.0727	-0.4774	-1.0501	1.3534	0.9642	0.3730	-0.1785	1.6840	0.6799	0.8889	2.6065	-0.5342	-0.1552	-1.7010	-0.6938	1.9137	1.8014	-0.4599	-1.1468	0.2441	1.1494	1.8172	-0.6291	2.3088	1.0054	0.0882	0.0323	-0.5038	-1.0673	
0.2000	 1.98640184564317E-0003	-0.5082	1.8596	1.2792	0.3827	-0.3588	1.5325	0.7125	1.2206	3.0975	-0.9359	-0.5082	-1.9347	-0.8639	2.3429	2.0027	-0.6114	-1.5139	0.3361	1.3346	2.1597	-0.6230	2.6837	0.8742	-0.0886	-0.2364	-0.8538	-1.4524	1.9139	1.3021	0.3563	-0.4170	1.5460	0.7448	1.2686	3.1525	-1.0060	-0.5544	-1.9834	-0.9197	2.4189	2.0486	-0.6101	-1.5414	0.3142	1.3400	2.2081	-0.6509	2.7410	0.8299	-0.0360	-0.2880	-0.8878	-1.4743	
