Arquivo: c:\arq\medidas\BBA_1303_063127\BBA_AMP10A_V.dat
Data: 1303	 Hora:  0739
Comentário: 
NomeParametro	 ValorParametro
Nmedias	5
PausaCorretora	3000
PausaShunt	2000
PausaLeitura	500
NumCiclos	3
 NPassosCor	9
DeltaShunt	3.00
TetaIni	-0.20
TetaFim	0.20
I[mA]	  27.8
ACV09B	DeltaPos^2	AMP10A	AMP01B_0	AMP02A_0	AMP02B_0	AMP03A_0	AMP03B_0	AMP04A_0	AMP04B_0	AMP05A_0	AMP05B_0	AMP06A_0	AMP06B_0	AMP07A_0	AMP07B_0	AMP08A_0	AMP08B_0	AMP09A_0	AMP09B_0	AMP10A_0	AMP10B_0	AMP11A_0	AMU11A_0	AMU11B_0	AMP11B_0	AMP12A_0	AMP12B_0	AMP01A_0	AMP01B_1	AMP02A_1	AMP02B_1	AMP03A_1	AMP03B_1	AMP04A_1	AMP04B_1	AMP05A_1	AMP05B_1	AMP06A_1	AMP06B_1	AMP07A_1	AMP07B_1	AMP08A_1	AMP08B_1	AMP09A_1	AMP09B_1	AMP10A_1	AMP10B_1	AMP11A_1	AMU11A_1	AMU11B_1	AMP11B_1	AMP12A_1	AMP12B_1	AMP01A_1	
-0.2000	 1.22455735311493E-0003	-0.7597	0.6786	1.0908	1.7619	2.0414	0.3558	-0.8156	-0.1773	1.8494	1.3596	0.8076	-2.2670	-2.2098	2.2076	2.5274	1.0275	0.8135	-1.8499	-0.7597	-0.0341	-0.0337	0.9630	2.7021	-3.2920	1.5122	-0.2332	-1.5369	0.6795	1.1069	1.8012	2.0968	0.3119	-0.8572	-0.1936	1.8484	1.3966	0.8204	-2.2945	-2.2638	2.2345	2.5575	1.0660	0.8563	-1.9096	-0.7959	-0.0689	-0.0245	0.9390	2.7458	-3.3921	1.5436	-0.2391	-1.5660	
-0.1500	 7.53045236648862E-0004	-0.4311	0.4336	0.8181	1.4460	1.6846	0.7745	-0.5019	-0.2028	1.6238	1.2528	0.8727	-1.9233	-1.6763	1.7762	2.1760	0.7720	0.6186	-1.3883	-0.4311	0.1313	0.0043	0.9759	2.4203	-2.4082	1.3886	-0.0192	-1.1268	0.4341	0.8312	1.4771	1.7265	0.7397	-0.5340	-0.2153	1.6228	1.2820	0.8825	-1.9448	-1.7187	1.7972	2.1995	0.8023	0.6526	-1.4355	-0.4598	0.1040	-0.0137	0.9573	2.4549	-2.4888	1.4134	-0.0241	-1.1501	
-0.1000	 3.69063261665197E-0004	-0.0924	0.1789	0.5359	1.1200	1.3147	1.2026	-0.1780	-0.2275	1.3928	1.1410	0.9384	-1.5692	-1.1256	1.3321	1.8129	0.5070	0.4155	-0.9101	-0.0924	0.2999	0.0040	0.9872	2.1300	-1.4860	1.2629	0.2024	-0.7012	0.1793	0.5453	1.1418	1.3430	1.1784	-0.2009	-0.2367	1.3917	1.1616	0.9452	-1.5842	-1.1554	1.3467	1.8298	0.5284	0.4394	-0.9432	-0.1128	0.2809	-0.0163	0.9745	2.1541	-1.5442	1.2804	0.1988	-0.7176	
-0.0500	 1.14700319269938E-0004	0.2540	-0.0824	0.2462	0.7854	0.9412	1.6393	0.1521	-0.2517	1.1588	1.0248	1.0033	-1.2077	-0.5616	0.8787	1.4417	0.2349	0.2052	-0.4182	0.2540	0.4710	-0.0083	0.9977	1.8319	-0.5346	1.1347	0.4294	-0.2659	-0.0826	0.2509	0.7972	0.9580	1.6263	0.1392	-0.2568	1.1575	1.0364	1.0077	-1.2158	-0.5778	0.8870	1.4507	0.2467	0.2189	-0.4365	0.2428	0.4602	-0.0155	0.9907	1.8455	-0.5660	1.1448	0.4279	-0.2745	
0.0000	 2.77312977824770E-0006	0.6063	-0.3491	-0.0486	0.4447	0.5567	2.0808	0.4882	-0.2750	0.9228	0.9045	1.0678	-0.8413	0.0110	0.4196	1.0646	-0.0429	-0.0107	0.0822	0.6063	0.6455	-0.0111	1.0080	1.5274	0.4338	1.0041	0.6601	0.1766	-0.3502	-0.0480	0.4465	0.5572	2.0787	0.4867	-0.2758	0.9216	0.9071	1.0691	-0.8417	0.0093	0.4199	1.0656	-0.0411	-0.0084	0.0793	0.6050	0.6434	-0.0069	1.0065	1.5304	0.4284	1.0063	0.6604	0.1761	
0.0500	 5.71950259680213E-0005	0.9624	-0.6196	-0.3457	0.1004	0.1633	2.5234	0.8300	-0.2955	0.6868	0.7806	1.1309	-0.4710	0.5878	-0.0431	0.6831	-0.3241	-0.2297	0.5881	0.9624	0.8219	-0.0164	1.0178	1.2189	1.4075	0.8716	0.8926	0.6249	-0.6218	-0.3498	0.0919	0.1517	2.5328	0.8389	-0.2928	0.6857	0.7739	1.1290	-0.4642	0.6005	-0.0501	0.6758	-0.3324	-0.2385	0.6011	0.9703	0.8283	-0.0308	1.0223	1.2102	1.4295	0.8658	0.8950	0.6320	
0.1000	 2.75247679781136E-0004	1.3200	-0.8908	-0.6441	-0.2467	-0.2292	2.9642	1.1721	-0.3147	0.4522	0.6541	1.1925	-0.1006	1.1650	-0.5071	0.3009	-0.6059	-0.4501	1.0950	1.3200	1.0004	-0.0047	1.0294	0.9070	2.3768	0.7381	1.1262	1.0745	-0.8934	-0.6531	-0.2654	-0.2551	2.9844	1.1915	-0.3077	0.4514	0.6375	1.1879	-0.0863	1.1916	-0.5214	0.2856	-0.6239	-0.4701	1.1234	1.3368	1.0157	-0.0086	1.0399	0.8871	2.4255	0.7241	1.1304	1.0902	
0.1500	 6.51914898020895E-0004	1.6758	-1.1597	-0.9416	-0.5932	-0.6213	3.4009	1.5133	-0.3318	0.2202	0.5253	1.2522	0.2680	1.7384	-0.9686	-0.0800	-0.8868	-0.6696	1.5995	1.6758	1.1797	-0.0114	1.0434	0.5936	3.3295	0.6024	1.3582	1.5224	-1.1631	-0.9548	-0.6222	-0.6613	3.4316	1.5440	-0.3205	0.2198	0.4992	1.2442	0.2893	1.7786	-0.9902	-0.1032	-0.9148	-0.7005	1.6429	1.7022	1.2037	-0.0069	1.0599	0.5624	3.4025	0.5807	1.3646	1.5457	
0.2000	 1.17392945732226E-0003	2.0285	-1.4241	-1.2351	-0.9369	-1.0110	3.8293	1.8524	-0.3469	-0.0072	0.3946	1.3088	0.6320	2.3034	-1.4238	-0.4568	-1.1648	-0.8867	2.0955	2.0285	1.3593	0.0053	1.0603	0.2801	4.2536	0.4652	1.5868	1.9637	-1.4280	-1.2525	-0.9756	-1.0651	3.8705	1.8926	-0.3311	-0.0069	0.3586	1.2974	0.6603	2.3570	-1.4521	-0.4875	-1.2022	-0.9284	2.1538	2.0631	1.3919	0.0007	1.0829	0.2373	4.3492	0.4354	1.5945	1.9943	
