Arquivo: c:\arq\medidas\BBA_1303_063127\BBA_AMP08B_V.dat
Data: 1303	 Hora:  0728
Comentário: 
NomeParametro	 ValorParametro
Nmedias	5
PausaCorretora	3000
PausaShunt	2000
PausaLeitura	500
NumCiclos	3
 NPassosCor	9
DeltaShunt	3.00
TetaIni	-0.20
TetaFim	0.20
I[mA]	  35.5
ACV03B	DeltaPos^2	AMP08B	AMP01B_0	AMP02A_0	AMP02B_0	AMP03A_0	AMP03B_0	AMP04A_0	AMP04B_0	AMP05A_0	AMP05B_0	AMP06A_0	AMP06B_0	AMP07A_0	AMP07B_0	AMP08A_0	AMP08B_0	AMP09A_0	AMP09B_0	AMP10A_0	AMP10B_0	AMP11A_0	AMU11A_0	AMU11B_0	AMP11B_0	AMP12A_0	AMP12B_0	AMP01A_0	AMP01B_1	AMP02A_1	AMP02B_1	AMP03A_1	AMP03B_1	AMP04A_1	AMP04B_1	AMP05A_1	AMP05B_1	AMP06A_1	AMP06B_1	AMP07A_1	AMP07B_1	AMP08A_1	AMP08B_1	AMP09A_1	AMP09B_1	AMP10A_1	AMP10B_1	AMP11A_1	AMU11A_1	AMU11B_1	AMP11B_1	AMP12A_1	AMP12B_1	AMP01A_1	
-0.2000	 1.16053382102081E-0003	1.2318	1.1595	1.2548	1.4331	1.3913	0.5837	-0.8347	-0.9488	0.6411	2.2625	1.6270	-1.5841	-1.5797	1.0403	1.9137	1.2318	1.5237	-1.8377	-0.6267	0.4863	-0.0221	1.5299	2.2082	-2.7228	0.9845	-0.5148	-1.6605	1.1807	1.2821	1.4696	1.4348	0.5386	-0.8717	-0.9520	0.6586	2.2818	1.6254	-1.6193	-1.6378	1.0829	1.9501	1.2660	1.5761	-1.8829	-0.6627	0.4637	-0.0143	1.5230	2.2439	-2.8218	1.0037	-0.5343	-1.7023	
-0.1500	 6.62225105294348E-0004	0.9227	0.7953	0.9396	1.1921	1.1862	0.9500	-0.5141	-0.7847	0.7091	1.9343	1.4906	-1.4027	-1.1937	0.8892	1.7078	0.9227	1.1521	-1.3751	-0.3267	0.5268	-0.0467	1.4045	2.0419	-1.9612	0.9871	-0.2309	-1.2170	0.8110	0.9601	1.2198	1.2199	0.9167	-0.5416	-0.7868	0.7224	1.9488	1.4892	-1.4294	-1.2379	0.9218	1.7346	0.9484	1.1916	-1.4089	-0.3536	0.5096	-0.0280	1.3990	2.0696	-2.0364	1.0017	-0.2453	-1.2489	
-0.1000	 3.04200028759406E-0004	0.6081	0.4259	0.6189	0.9459	0.9758	1.3221	-0.1872	-0.6181	0.7778	1.6002	1.3524	-1.2180	-0.7996	0.7347	1.4973	0.6081	0.7732	-0.9030	-0.0212	0.5695	-0.0246	1.2779	1.8713	-1.1786	0.9880	0.0574	-0.7654	0.4364	0.6327	0.9647	0.9981	1.2994	-0.2060	-0.6200	0.7863	1.6101	1.3517	-1.2356	-0.8296	0.7560	1.5156	0.6254	0.8005	-0.9261	-0.0398	0.5572	-0.0122	1.2738	1.8904	-1.2302	0.9984	0.0478	-0.7865	
-0.0500	 7.73126780611721E-0005	0.2901	0.0540	0.2952	0.6964	0.7625	1.6956	0.1424	-0.4504	0.8460	1.2618	1.2131	-1.0310	-0.4009	0.5776	1.2838	0.2901	0.3910	-0.4243	0.2870	0.6119	-0.0254	1.1500	1.6988	-0.3841	0.9891	0.3482	-0.3079	0.0592	0.3021	0.7059	0.7742	1.6846	0.1329	-0.4517	0.8502	1.2675	1.2132	-1.0397	-0.4157	0.5882	1.2927	0.2989	0.4047	-0.4360	0.2775	0.6055	-0.0206	1.1478	1.7089	-0.4101	0.9948	0.3436	-0.3186	
0.0000	 3.74966304964574E-0007	-0.0311	-0.3211	-0.0314	0.4443	0.5459	2.0706	0.4748	-0.2815	0.9150	0.9196	1.0726	-0.8419	0.0013	0.4190	1.0684	-0.0311	0.0051	0.0583	0.5975	0.6554	-0.0292	1.0220	1.5235	0.4172	0.9889	0.6402	0.1514	-0.3215	-0.0317	0.4442	0.5469	2.0719	0.4752	-0.2817	0.9148	0.9202	1.0725	-0.8415	0.0019	0.4189	1.0678	-0.0312	0.0056	0.0585	0.5970	0.6547	-0.0206	1.0215	1.5245	0.4176	0.9902	0.6407	0.1519	
0.0500	 7.68730044500661E-0005	-0.3548	-0.6997	-0.3598	0.1906	0.3277	2.4466	0.8095	-0.1097	0.9868	0.5740	0.9292	-0.6520	0.4055	0.2605	0.8515	-0.3548	-0.3840	0.5447	0.9104	0.7012	-0.0360	0.8940	1.3452	1.2223	0.9878	0.9332	0.6150	-0.7055	-0.3674	0.1810	0.3181	2.4587	0.8188	-0.1091	0.9821	0.5694	0.9298	-0.6425	0.4213	0.2494	0.8417	-0.3639	-0.3971	0.5567	0.9197	0.7062	-0.0361	0.8952	1.3374	1.2490	0.9840	0.9390	0.6257	
0.1000	 3.14191889223763E-0004	-0.6812	-1.0798	-0.6908	-0.0661	0.1088	2.8214	1.1462	0.0649	1.0614	0.2232	0.7841	-0.4618	0.8124	0.1021	0.6335	-0.6812	-0.7773	1.0350	1.2264	0.7480	-0.0346	0.7660	1.1652	2.0271	0.9858	1.2282	1.0813	-1.0911	-0.7045	-0.0851	0.0841	2.8449	1.1658	0.0668	1.0524	0.2132	0.7848	-0.4432	0.8426	0.0797	0.6148	-0.6990	-0.8038	1.0579	1.2451	0.7593	-0.0352	0.7690	1.1478	2.0782	0.9772	1.2390	1.1035	
0.1500	 6.95522992810429E-0004	-1.0092	-1.4608	-1.0220	-0.3234	-0.1154	3.1950	1.4856	0.2433	1.1397	-0.1329	0.6351	-0.2713	1.2199	-0.0559	0.4159	-1.0092	-1.1726	1.5259	1.5441	0.7963	-0.0100	0.6381	0.9819	2.8243	0.9824	1.5236	1.5491	-1.4776	-1.0440	-0.3519	-0.1472	3.2305	1.5136	0.2457	1.1264	-0.1479	0.6362	-0.2437	1.2658	-0.0889	0.3869	-1.0361	-1.2130	1.5614	1.5714	0.8130	0.0111	0.6431	0.9558	2.9011	0.9687	1.5394	1.5817	
0.2000	 1.27845296207021E-0003	-1.3432	-1.8488	-1.3598	-0.5848	-0.3371	3.5723	1.8295	0.4272	1.2228	-0.4981	0.4812	-0.0790	1.6327	-0.2140	0.1949	-1.3432	-1.5763	2.0250	1.8674	0.8457	-0.0345	0.5089	0.7934	3.6230	0.9776	1.8238	2.0240	-1.8716	-1.3886	-0.6234	-0.3835	3.6191	1.8680	0.4306	1.2054	-0.5193	0.4824	-0.0418	1.6938	-0.2585	0.1562	-1.3793	-1.6306	2.0729	1.9049	0.8691	-0.0101	0.5157	0.7571	3.7247	0.9587	1.8453	2.0682	
