Arquivo: c:\arq\medidas\BBA_1303_063127\BBA_AMP06B_V.dat
Data: 1303	 Hora:  0712
Comentário: 
NomeParametro	 ValorParametro
Nmedias	5
PausaCorretora	3000
PausaShunt	2000
PausaLeitura	500
NumCiclos	3
 NPassosCor	9
DeltaShunt	3.00
TetaIni	-0.20
TetaFim	0.20
I[mA]	 160.2
ACV07A	DeltaPos^2	AMP06B	AMP01B_0	AMP02A_0	AMP02B_0	AMP03A_0	AMP03B_0	AMP04A_0	AMP04B_0	AMP05A_0	AMP05B_0	AMP06A_0	AMP06B_0	AMP07A_0	AMP07B_0	AMP08A_0	AMP08B_0	AMP09A_0	AMP09B_0	AMP10A_0	AMP10B_0	AMP11A_0	AMU11A_0	AMU11B_0	AMP11B_0	AMP12A_0	AMP12B_0	AMP01A_0	AMP01B_1	AMP02A_1	AMP02B_1	AMP03A_1	AMP03B_1	AMP04A_1	AMP04B_1	AMP05A_1	AMP05B_1	AMP06A_1	AMP06B_1	AMP07A_1	AMP07B_1	AMP08A_1	AMP08B_1	AMP09A_1	AMP09B_1	AMP10A_1	AMP10B_1	AMP11A_1	AMU11A_1	AMU11B_1	AMP11B_1	AMP12A_1	AMP12B_1	AMP01A_1	
-0.2000	 2.50694455743183E-0003	-2.4317	1.6578	1.4963	1.2688	0.9793	0.6301	-0.2365	0.6908	2.8337	0.0941	-0.0552	-2.4317	-2.0982	1.6200	2.2939	1.3155	1.4031	-2.1058	-0.6620	0.8501	-0.6246	1.9855	1.9150	-2.3218	0.5927	-0.8427	-1.9312	1.7364	1.5488	1.2808	0.9644	0.5966	-0.2414	0.7382	2.9104	0.0415	-0.1057	-2.4826	-2.1784	1.6883	2.3475	1.3516	1.4286	-2.1736	-0.6939	0.8770	-0.6576	2.0371	1.9072	-2.3736	0.5599	-0.8988	-1.9980	
-0.1500	 1.43937248249300E-0003	-2.0450	1.1717	1.1191	1.0637	0.8727	0.9877	-0.0621	0.4575	2.3727	0.2905	0.2154	-2.0450	-1.5882	1.3184	1.9906	0.9891	1.0660	-1.5812	-0.3562	0.7976	-0.6336	1.7439	1.8242	-1.6506	0.6926	-0.4787	-1.4246	1.2316	1.1593	1.0729	0.8626	0.9621	-0.0660	0.4933	2.4314	0.2511	0.1772	-2.0837	-1.6489	1.3694	2.0315	1.0163	1.0851	-1.6327	-0.3805	0.8181	-0.6487	1.7829	1.8187	-1.6905	0.6682	-0.5211	-1.4756	
-0.1000	 6.17486516411316E-0004	-1.6467	0.6716	0.7314	0.8528	0.7644	1.3541	0.1178	0.2201	1.8986	0.4887	0.4907	-1.6467	-1.0622	1.0053	1.6784	0.6540	0.7205	-1.0406	-0.0427	0.7442	-0.6351	1.4964	1.7313	-0.9561	0.7945	-0.1056	-0.9031	0.7111	0.7578	0.8586	0.7572	1.3381	0.1152	0.2434	1.9372	0.4629	0.4659	-1.6720	-1.1016	1.0392	1.7050	0.6717	0.7328	-1.0747	-0.0585	0.7575	-0.6135	1.5218	1.7278	-0.9816	0.7790	-0.1331	-0.9367	
-0.0500	 1.34328336581470E-0004	-1.2425	0.1649	0.3389	0.6382	0.6518	1.7251	0.3005	-0.0191	1.4170	0.6871	0.7684	-1.2425	-0.5276	0.6873	1.3599	0.3138	0.3707	-0.4903	0.2751	0.6905	-0.6114	1.2457	1.6361	-0.2477	0.8975	0.2729	-0.3718	0.1838	0.3514	0.6407	0.6482	1.7181	0.3001	-0.0079	1.4355	0.6751	0.7569	-1.2540	-0.5455	0.7038	1.3725	0.3219	0.3760	-0.5056	0.2683	0.6969	-0.6228	1.2576	1.6346	-0.2590	0.8905	0.2602	-0.3877	
0.0000	 6.53868916848687E-0006	-0.8324	-0.3476	-0.0601	0.4197	0.5363	2.0999	0.4874	-0.2597	0.9293	0.8843	1.0481	-0.8324	0.0153	0.3653	1.0372	-0.0317	0.0149	0.0683	0.5973	0.6378	-0.6479	0.9920	1.5385	0.4712	1.0001	0.6551	0.1654	-0.3506	-0.0626	0.4185	0.5358	2.1029	0.4887	-0.2616	0.9266	0.8866	1.0500	-0.8293	0.0202	0.3627	1.0343	-0.0341	0.0128	0.0723	0.5993	0.6364	-0.6191	0.9894	1.5389	0.4758	1.0025	0.6582	0.1683	
0.0500	 2.57509181356241E-0004	-0.4128	-0.8734	-0.4674	0.1960	0.4175	2.4811	0.6788	-0.5051	0.4316	1.0852	1.3316	-0.4128	0.5688	0.0373	0.7068	-0.3859	-0.3499	0.6402	0.9279	0.5856	-0.6460	0.7334	1.4359	1.2056	1.1034	1.0452	0.7153	-0.8977	-0.4844	0.1914	0.4202	2.4933	0.6812	-0.5195	0.4077	1.1010	1.3469	-0.3959	0.5957	0.0164	0.6894	-0.3979	-0.3594	0.6630	0.9386	0.5776	-0.6525	0.7170	1.4387	1.2244	1.1142	1.0631	0.7365	
0.1000	 8.77079305801948E-0004	0.0053	-1.3965	-0.8746	-0.0284	0.2985	2.8593	0.8701	-0.7486	-0.0656	1.2843	1.6135	0.0053	1.1200	-0.2878	0.3780	-0.7403	-0.7175	1.2118	1.2594	0.5353	-0.6530	0.4765	1.3316	1.9337	1.2050	1.4332	1.2644	-1.4417	-0.9055	-0.0367	0.3045	2.8806	0.8743	-0.7755	-0.1106	1.3143	1.6421	0.0362	1.1693	-0.3269	0.3459	-0.7625	-0.7340	1.2528	1.2792	0.5201	-0.6468	0.4462	1.3362	1.9672	1.2246	1.4662	1.3041	
0.1500	 1.78748146731646E-0003	0.4207	-1.9166	-1.2795	-0.2519	0.1794	3.2335	1.0612	-0.9906	-0.5604	1.4822	1.8931	0.4207	1.6668	-0.6079	0.0519	-1.0950	-1.0868	1.7802	1.5900	0.4876	-0.6133	0.2223	1.2243	2.6525	1.3035	1.8194	1.8108	-1.9813	-1.3238	-0.2630	0.1889	3.2632	1.0670	-1.0294	-0.6250	1.5249	1.9344	0.4644	1.7360	-0.6640	0.0060	-1.1266	-1.1103	1.8395	1.6189	0.4661	-0.6314	0.1789	1.2310	2.6984	1.3307	1.8667	1.8672	
0.2000	 2.91648330570296E-0003	0.8299	-2.4284	-1.6794	-0.4727	0.0619	3.6010	1.2502	-1.2293	-1.0485	1.6772	2.1691	0.8299	2.2041	-0.9196	-0.2685	-1.4473	-1.4553	2.3420	1.9200	0.4431	-0.6100	-0.0268	1.1146	3.3540	1.3978	2.1998	2.3493	-2.5115	-1.7360	-0.4866	0.0749	3.6375	1.2571	-1.2792	-1.1317	1.7330	2.2220	0.8855	2.2920	-0.9910	-0.3271	-1.4883	-1.4855	2.4168	1.9561	0.4156	-0.6270	-0.0825	1.1226	3.4106	1.4326	2.2602	2.4212	
