Arquivo: c:\arq\medidas\BBA_1303_063127\BBA_AMP04B_H.dat
Data: 1303	 Hora:  0655
Comentário: 
NomeParametro	 ValorParametro
Nmedias	5
PausaCorretora	3000
PausaShunt	2000
PausaLeitura	500
NumCiclos	3
 NPassosCor	9
DeltaShunt	3.00
TetaIni	-0.20
TetaFim	0.20
I[mA]	 164.2
ACH09A	DeltaPos^2	AMP04B	AMP01B_0	AMP02A_0	AMP02B_0	AMP03A_0	AMP03B_0	AMP04A_0	AMP04B_0	AMP05A_0	AMP05B_0	AMP06A_0	AMP06B_0	AMP07A_0	AMP07B_0	AMP08A_0	AMP08B_0	AMP09A_0	AMP09B_0	AMP10A_0	AMP10B_0	AMP11A_0	AMU11A_0	AMU11B_0	AMP11B_0	AMP12A_0	AMP12B_0	AMP01A_0	AMP01B_1	AMP02A_1	AMP02B_1	AMP03A_1	AMP03B_1	AMP04A_1	AMP04B_1	AMP05A_1	AMP05B_1	AMP06A_1	AMP06B_1	AMP07A_1	AMP07B_1	AMP08A_1	AMP08B_1	AMP09A_1	AMP09B_1	AMP10A_1	AMP10B_1	AMP11A_1	AMU11A_1	AMU11B_1	AMP11B_1	AMP12A_1	AMP12B_1	AMP01A_1	
-0.2000	 3.16047168398318E-0004	-1.2925	0.4124	-0.5310	-2.8337	2.0389	1.4050	-1.0779	-1.2925	-0.6383	1.2279	0.6887	-1.3027	-1.1559	-0.5437	0.3904	0.5152	-2.1777	-2.5015	0.1683	0.1753	-0.3055	0.2936	-0.0326	-1.5617	-1.2866	-1.0979	1.7267	0.4218	-0.5286	-2.8397	2.0158	1.3882	-1.0692	-1.2864	-0.6399	1.2170	0.6757	-1.3071	-1.1332	-0.5291	0.3693	0.4993	-2.1446	-2.4702	0.1486	0.1543	-0.3136	0.3182	-0.0026	-1.5644	-1.2963	-1.1148	1.7264	
-0.1500	 5.71573957518983E-0005	-1.0308	0.0665	-0.2640	-2.6298	1.4844	0.8321	-0.8882	-1.0308	-0.9267	0.8173	0.6907	-1.1646	-1.0186	-0.5582	0.2077	0.4552	-1.6996	-1.9215	0.0897	-0.0462	-0.3146	0.3157	0.1278	-1.7726	-1.1285	-1.1003	1.2667	0.0703	-0.2627	-2.6322	1.4745	0.8251	-0.8846	-1.0274	-0.9267	0.8131	0.6849	-1.1665	-1.0078	-0.5518	0.1988	0.4485	-1.6855	-1.9078	0.0814	-0.0550	-0.3282	0.3257	0.1403	-1.7736	-1.1315	-1.1067	1.2655	
-0.1000	 7.56224687775625E-0006	-0.7629	-0.2895	0.0081	-2.4211	0.9134	0.2436	-0.6944	-0.7629	-1.2220	0.3974	0.6934	-1.0230	-0.8787	-0.5742	0.0219	0.3948	-1.2099	-1.3252	0.0111	-0.2715	-0.3385	0.3364	0.2900	-1.9878	-0.9656	-1.1012	0.7927	-0.2913	0.0083	-2.4200	0.9171	0.2470	-0.6963	-0.7638	-1.2206	0.3997	0.6950	-1.0224	-0.8816	-0.5762	0.0247	0.3973	-1.2145	-1.3296	0.0135	-0.2686	-0.3362	0.3318	0.2851	-1.9873	-0.9637	-1.0987	0.7916	
-0.0500	 1.71897223317961E-0004	-0.4967	-0.6451	0.2787	-2.2127	0.3423	-0.3438	-0.5019	-0.4967	-1.5165	-0.0223	0.6971	-0.8820	-0.7426	-0.5923	-0.1627	0.3351	-0.7235	-0.7304	-0.0665	-0.4957	-0.3263	0.3540	0.4485	-2.2019	-0.8030	-1.1015	0.3183	-0.6528	0.2782	-2.2074	0.3601	-0.3306	-0.5085	-0.5008	-1.5137	-0.0135	0.7056	-0.8784	-0.7576	-0.6026	-0.1480	0.3466	-0.7473	-0.7534	-0.0523	-0.4803	-0.3375	0.3349	0.4263	-2.1995	-0.7942	-1.0884	0.3163	
0.0000	 5.56950382786754E-0004	-0.2300	-1.0032	0.5495	-2.0018	-0.2316	-0.9324	-0.3078	-0.2300	-1.8135	-0.4444	0.7021	-0.7392	-0.6087	-0.6136	-0.3459	0.2771	-0.2383	-0.1365	-0.1423	-0.7186	-0.3398	0.3691	0.6041	-2.4158	-0.6386	-1.0998	-0.1580	-1.0166	0.5479	-1.9933	-0.1998	-0.9090	-0.3199	-0.2376	-1.8081	-0.4280	0.7180	-0.7335	-0.6367	-0.6316	-0.3192	0.2977	-0.2815	-0.1778	-0.1166	-0.6905	-0.3193	0.3351	0.5642	-2.4117	-0.6239	-1.0767	-0.1603	
0.0500	 1.15530869016354E-0003	0.0352	-1.3617	0.8196	-1.7912	-0.8047	-1.5185	-0.1141	0.0352	-2.1103	-0.8656	0.7080	-0.5965	-0.4774	-0.6366	-0.5283	0.2200	0.2435	0.4550	-0.2172	-0.9407	-0.3573	0.3813	0.7564	-2.6282	-0.4743	-1.0975	-0.6358	-1.3811	0.8169	-1.7791	-0.7597	-1.4861	-0.1311	0.0246	-2.1038	-0.8430	0.7312	-0.5879	-0.5182	-0.6636	-0.4893	0.2500	0.1810	0.3954	-0.1802	-0.9004	-0.3141	0.3324	0.6989	-2.6225	-0.4531	-1.0639	-0.6396	
0.1000	 1.94675727265938E-0003	0.3007	-1.7205	1.0885	-1.5802	-1.3764	-2.1029	0.0806	0.3007	-2.4094	-1.2876	0.7159	-0.4523	-0.3508	-0.6640	-0.7088	0.1652	0.7215	1.0424	-0.2904	-1.1610	-0.3177	0.3910	0.9063	-2.8404	-0.3088	-1.0935	-1.1145	-1.7453	1.0857	-1.5636	-1.3187	-2.0610	0.0586	0.2868	-2.4019	-1.2587	0.7464	-0.4410	-0.4040	-0.6994	-0.6580	0.2042	0.6409	0.9649	-0.2422	-1.1079	-0.2963	0.3275	0.8315	-2.8332	-0.2814	-1.0500	-1.1185	
0.1500	 2.95521274429649E-0003	0.5647	-2.0774	1.3558	-1.3692	-1.9452	-2.6808	0.2753	0.5647	-2.7096	-1.7092	0.7259	-0.3072	-0.2289	-0.6956	-0.8869	0.1127	1.1942	1.6223	-0.3625	-1.3794	-0.3094	0.3984	1.0524	-3.0510	-0.1435	-1.0885	-1.5895	-2.1085	1.3523	-1.3489	-1.8741	-2.6297	0.2485	0.5477	-2.6997	-1.6736	0.7637	-0.2933	-0.2947	-0.7388	-0.8239	0.1609	1.0949	1.5279	-0.3024	-1.3139	-0.3379	0.3202	0.9604	-3.0423	-0.1095	-1.0344	-1.5947	
0.2000	 4.08025862897704E-0003	0.8278	-2.4332	1.6223	-1.1584	-2.5086	-3.2529	0.4702	0.8278	-3.0105	-2.1293	0.7381	-0.1609	-0.1125	-0.7320	-1.0630	0.0620	1.6586	2.1931	-0.4317	-1.5946	-0.2856	0.4022	1.1938	-3.2604	0.0221	-1.0818	-2.0627	-2.4686	1.6176	-1.1348	-2.4249	-3.1922	0.4382	0.8077	-2.9991	-2.0871	0.7825	-0.1447	-0.1899	-0.7826	-0.9883	0.1194	1.5420	2.0823	-0.3613	-1.5178	-0.3040	0.3104	1.0857	-3.2500	0.0615	-1.0185	-2.0680	
