Arquivo: c:\arq\medidas\BBA_1303_063127\BBA_AMP09A_V.dat
Data: 1303	 Hora:  0732
Comentário: 
NomeParametro	 ValorParametro
Nmedias	5
PausaCorretora	3000
PausaShunt	2000
PausaLeitura	500
NumCiclos	3
 NPassosCor	9
DeltaShunt	1.50
TetaIni	-0.20
TetaFim	0.20
I[mA]	  33.2
ACV11B	DeltaPos^2	AMP09A	AMP01B_0	AMP02A_0	AMP02B_0	AMP03A_0	AMP03B_0	AMP04A_0	AMP04B_0	AMP05A_0	AMP05B_0	AMP06A_0	AMP06B_0	AMP07A_0	AMP07B_0	AMP08A_0	AMP08B_0	AMP09A_0	AMP09B_0	AMP10A_0	AMP10B_0	AMP11A_0	AMU11A_0	AMU11B_0	AMP11B_0	AMP12A_0	AMP12B_0	AMP01A_0	AMP01B_1	AMP02A_1	AMP02B_1	AMP03A_1	AMP03B_1	AMP04A_1	AMP04B_1	AMP05A_1	AMP05B_1	AMP06A_1	AMP06B_1	AMP07A_1	AMP07B_1	AMP08A_1	AMP08B_1	AMP09A_1	AMP09B_1	AMP10A_1	AMP10B_1	AMP11A_1	AMU11A_1	AMU11B_1	AMP11B_1	AMP12A_1	AMP12B_1	AMP01A_1	
-0.2000	 4.04980391184497E-0003	-1.9674	1.3096	0.6659	-0.3239	-1.1633	2.4528	1.4272	1.1709	2.6269	-1.1914	-0.3626	-1.1711	0.3441	1.4430	1.2409	-1.1864	-1.9674	1.3657	1.8336	1.8326	-0.0126	1.7669	-0.0388	1.9255	-0.5112	-0.3618	-0.5127	1.3199	0.6436	-0.3984	-1.2721	2.5291	1.5059	1.2113	2.6443	-1.2734	-0.3967	-1.1260	0.4406	1.4053	1.1891	-1.2631	-2.0628	1.4144	1.8891	1.9023	-0.0260	1.8214	-0.1244	2.1135	-0.5760	-0.3576	-0.4668	
-0.1500	 2.61676262418730E-0003	-1.5088	0.9184	0.4963	-0.1448	-0.7605	2.3674	1.2072	0.8314	2.2282	-0.6990	-0.0258	-1.0934	0.2653	1.2025	1.1999	-0.9173	-1.5088	1.0637	1.5466	1.5558	-0.0353	1.5893	0.3297	1.5804	-0.1554	-0.1202	-0.3482	0.9274	0.4787	-0.2044	-0.8486	2.4291	1.2701	0.8644	2.2428	-0.7654	-0.0536	-1.0580	0.3426	1.1735	1.1587	-0.9788	-1.5857	1.1028	1.5909	1.6120	-0.0396	1.6335	0.2609	1.7310	-0.2076	-0.1176	-0.3121	
-0.1000	 1.42104495694274E-0003	-1.0343	0.5148	0.3219	0.0397	-0.3450	2.2798	0.9797	0.4809	1.8148	-0.1899	0.3207	-1.0122	0.1864	0.9529	1.1560	-0.6402	-1.0343	0.7533	1.2503	1.2689	-0.0369	1.4045	0.7094	1.2232	0.2114	0.1286	-0.1790	0.5219	0.3091	-0.0042	-0.4097	2.3252	1.0263	0.5054	1.8257	-0.2391	0.3000	-0.9862	0.2427	0.9320	1.1259	-0.6856	-1.0916	0.7824	1.2832	1.3105	-0.0347	1.4372	0.6590	1.3343	0.1727	0.1301	-0.1530	
-0.0500	 5.74169823517476E-0004	-0.5506	0.1044	0.1445	0.2277	0.0780	2.1898	0.7484	0.1242	1.3925	0.3279	0.6730	-0.9291	0.1068	0.6982	1.1107	-0.3588	-0.5506	0.4390	0.9490	0.9759	-0.0320	1.2154	1.0941	0.8582	0.5839	0.3812	-0.0083	0.1087	0.1365	0.1999	0.0368	2.2186	0.7778	0.1400	1.4002	0.2964	0.6604	-0.9125	0.1427	0.6846	1.0917	-0.3879	-0.5869	0.4577	0.9703	1.0022	-0.0214	1.2363	1.0623	0.9294	0.5594	0.3822	0.0081	
0.0000	 9.62984606780294E-0005	-0.0614	-0.3102	-0.0356	0.4167	0.5053	2.0990	0.5145	-0.2368	0.9644	0.8493	1.0294	-0.8440	0.0273	0.4398	1.0642	-0.0748	-0.0614	0.1223	0.6449	0.6790	-0.0326	1.0245	1.4815	0.4901	0.9603	0.6370	0.1645	-0.3082	-0.0389	0.4051	0.4884	2.1108	0.5267	-0.2302	0.9671	0.8365	1.0243	-0.8372	0.0420	0.4343	1.0568	-0.0866	-0.0763	0.1298	0.6534	0.6899	-0.0053	1.0333	1.4686	0.5191	0.9499	0.6373	0.1709	
0.0500	 1.71293304931659E-0005	0.4297	-0.7282	-0.2165	0.6064	0.9337	2.0079	0.2798	-0.5988	0.5340	1.3729	1.3866	-0.7582	-0.0518	0.1798	1.0180	0.2102	0.4297	-0.1964	0.3390	0.3811	-0.0274	0.8322	1.8693	0.1208	1.3373	0.8941	0.3394	-0.7292	-0.2154	0.6113	0.9408	2.0033	0.2746	-0.6014	0.5324	1.3782	1.3891	-0.7606	-0.0574	0.1819	1.0203	0.2151	0.4361	-0.1994	0.3353	0.3762	-0.0238	0.8285	1.8754	0.1085	1.3420	0.8941	0.3361	
0.1000	 3.24060995588974E-0004	0.9202	-1.1469	-0.3984	0.7954	1.3595	1.9175	0.0456	-0.9599	0.1014	1.8938	1.7429	-0.6722	-0.1311	-0.0803	0.9703	0.4949	0.9202	-0.5154	0.0332	0.0840	-0.0148	0.6402	2.2552	-0.2471	1.7128	1.1516	0.5149	-1.1507	-0.3925	0.8166	1.3905	1.8955	0.0234	-0.9718	0.0958	1.9175	1.7526	-0.6845	-0.1571	-0.0702	0.9844	0.5167	0.9478	-0.5292	0.0175	0.0638	-0.0008	0.6244	2.2789	-0.3006	1.7312	1.1510	0.5024	
0.1500	 9.98821694717406E-0004	1.4083	-1.5639	-0.5804	0.9832	1.7813	1.8278	-0.1868	-1.3201	-0.3304	2.4108	2.0966	-0.5871	-0.2100	-0.3385	0.9241	0.7789	1.4083	-0.8343	-0.2714	-0.2112	-0.0152	0.4503	2.6358	-0.6124	2.0848	1.4081	0.6916	-1.5704	-0.5702	1.0195	1.8355	1.7892	-0.2259	-1.3406	-0.3400	2.4513	2.1139	-0.6087	-0.2572	-0.3211	0.9487	0.8169	1.4570	-0.8582	-0.2994	-0.2463	-0.0284	0.4225	2.6777	-0.7065	2.1176	1.4072	0.6701	
0.2000	 1.98112542632594E-0003	1.8938	-1.9789	-0.7626	1.1692	2.1996	1.7398	-0.4177	-1.6776	-0.7602	2.9210	2.4474	-0.5031	-0.2911	-0.5955	0.8786	1.0622	1.8938	-1.1535	-0.5763	-0.5028	-0.0206	0.2638	3.0119	-0.9738	2.4530	1.6642	0.8697	-1.9885	-0.7480	1.2209	2.2754	1.6853	-0.4731	-1.7067	-0.7733	2.9778	2.4718	-0.5341	-0.3578	-0.5699	0.9146	1.1159	1.9612	-1.1867	-0.6154	-0.5528	-0.0249	0.2246	3.0707	-1.1067	2.4988	1.6632	0.8394	
