Arquivo: c:\arq\medidas\BBA_1303_063127\BBA_AMP08A_V.dat
Data: 1303	 Hora:  0724
Comentário: 
NomeParametro	 ValorParametro
Nmedias	5
PausaCorretora	3000
PausaShunt	2000
PausaLeitura	500
NumCiclos	3
 NPassosCor	9
DeltaShunt	3.00
TetaIni	-0.20
TetaFim	0.20
I[mA]	  40.5
ACV07B	DeltaPos^2	AMP08A	AMP01B_0	AMP02A_0	AMP02B_0	AMP03A_0	AMP03B_0	AMP04A_0	AMP04B_0	AMP05A_0	AMP05B_0	AMP06A_0	AMP06B_0	AMP07A_0	AMP07B_0	AMP08A_0	AMP08B_0	AMP09A_0	AMP09B_0	AMP10A_0	AMP10B_0	AMP11A_0	AMU11A_0	AMU11B_0	AMP11B_0	AMP12A_0	AMP12B_0	AMP01A_0	AMP01B_1	AMP02A_1	AMP02B_1	AMP03A_1	AMP03B_1	AMP04A_1	AMP04B_1	AMP05A_1	AMP05B_1	AMP06A_1	AMP06B_1	AMP07A_1	AMP07B_1	AMP08A_1	AMP08B_1	AMP09A_1	AMP09B_1	AMP10A_1	AMP10B_1	AMP11A_1	AMU11A_1	AMU11B_1	AMP11B_1	AMP12A_1	AMP12B_1	AMP01A_1	
-0.2000	 2.02932106081678E-0003	-0.6127	-2.6920	-1.5759	0.2016	1.1049	2.9713	0.5377	-1.7109	-1.3817	2.5554	2.5955	0.5154	1.3064	-1.8542	-0.6127	-1.0728	-0.6406	2.0527	1.4790	-0.2465	-0.0435	-0.6269	1.8946	1.7550	2.0554	2.2863	2.0984	-2.7584	-1.6254	0.1793	1.0987	3.0132	0.5557	-1.7453	-1.4462	2.5864	2.6333	0.5644	1.3646	-1.9287	-0.6585	-1.1136	-0.6815	2.1219	1.5171	-0.2571	-0.0268	-0.6627	1.8873	1.8325	2.0721	2.3350	2.1646	
-0.1500	 1.14322514649074E-0003	-0.2283	-2.1531	-1.2266	0.2478	0.9654	2.7767	0.5347	-1.3732	-0.8461	2.1638	2.2383	0.2087	1.0212	-1.3347	-0.2283	-0.8372	-0.4989	1.6028	1.2812	-0.0359	-0.0219	-0.2463	1.8042	1.4740	1.8078	1.9127	1.6595	-2.2035	-1.2639	0.2311	0.9611	2.8079	0.5481	-1.3991	-0.8950	2.1878	2.2669	0.2457	1.0654	-1.3912	-0.2632	-0.8675	-0.5281	1.6539	1.3088	-0.0446	-0.0246	-0.2737	1.7998	1.5324	1.8215	1.9487	1.7088	
-0.1000	 4.26588989162234E-0004	0.1747	-1.5848	-0.8594	0.2973	0.8197	2.5700	0.5303	-1.0191	-0.2832	1.7538	1.8624	-0.1150	0.7173	-0.7861	0.1747	-0.5921	-0.3526	1.1299	1.0750	0.1870	-0.0415	0.1538	1.7077	1.1761	1.5465	1.5188	1.1978	-1.6152	-0.8822	0.2873	0.8171	2.5894	0.5384	-1.0347	-0.3129	1.7687	1.8798	-0.0923	0.7443	-0.8208	0.1535	-0.6105	-0.3700	1.1610	1.0919	0.1812	-0.0427	0.1370	1.7055	1.2113	1.5554	1.5410	1.2279	
-0.0500	 4.86756628969375E-0005	0.5837	-1.0070	-0.4866	0.3490	0.6740	2.3586	0.5244	-0.6601	0.2874	1.3399	1.4812	-0.4451	0.4056	-0.2275	0.5837	-0.3455	-0.2066	0.6509	0.8671	0.4136	-0.0384	0.5600	1.6083	0.8696	1.2802	1.1190	0.7288	-1.0174	-0.4943	0.3458	0.6735	2.3657	0.5268	-0.6656	0.2772	1.3448	1.4870	-0.4373	0.4149	-0.2392	0.5763	-0.3513	-0.2120	0.6612	0.8724	0.4114	-0.0199	0.5542	1.6083	0.8817	1.2836	1.1268	0.7388	
0.0000	 5.52103506885960E-0005	0.9987	-0.4187	-0.1080	0.4023	0.5279	2.1416	0.5168	-0.2963	0.8639	0.9197	1.0937	-0.7813	0.0869	0.3402	0.9987	-0.0952	-0.0599	0.1650	0.6567	0.6442	-0.0288	0.9719	1.5065	0.5563	1.0079	0.7121	0.2532	-0.4076	-0.0997	0.4061	0.5290	2.1360	0.5146	-0.2908	0.8747	0.9144	1.0873	-0.7892	0.0778	0.3528	1.0064	-0.0883	-0.0532	0.1535	0.6502	0.6459	-0.0223	0.9781	1.5085	0.5435	1.0057	0.7042	0.2421	
0.0500	 4.85285787254721E-0004	1.4177	0.1736	0.2746	0.4572	0.3811	1.9214	0.5092	0.0706	1.4457	0.4968	0.7016	-1.1209	-0.2369	0.9139	1.4177	0.1575	0.0881	-0.3260	0.4455	0.8779	-0.0485	1.3864	1.4028	0.2377	0.7324	0.3003	-0.2268	0.2065	0.2989	0.4680	0.3841	1.9014	0.5008	0.0876	1.4770	0.4809	0.6826	-1.1448	-0.2653	0.9507	1.4405	0.1772	0.1069	-0.3592	0.4274	0.8837	-0.0373	1.4047	1.4064	0.2001	0.7239	0.2764	-0.2592	
0.1000	 1.33780354500500E-0003	1.8370	0.7674	0.6577	0.5122	0.2338	1.6994	0.5010	0.4378	2.0258	0.0711	0.3083	-1.4608	-0.5622	1.4874	1.8370	0.4113	0.2365	-0.8186	0.2326	1.1120	-0.0313	1.8022	1.2998	-0.0826	0.4552	-0.1133	-0.7098	0.8219	0.6977	0.5303	0.2390	1.6656	0.4863	0.4659	2.0778	0.0449	0.2769	-1.5003	-0.6092	1.5484	1.8743	0.4440	0.2680	-0.8744	0.2024	1.1221	-0.0411	1.8322	1.3054	-0.1457	0.4409	-0.1529	-0.7634	
0.1500	 2.53905963479160E-0003	2.2516	1.3558	1.0383	0.5679	0.0877	1.4770	0.4921	0.8028	2.5978	-0.3521	-0.0828	-1.7974	-0.8835	2.0538	2.2516	0.6639	0.3865	-1.3085	0.0198	1.3442	-0.0310	2.2133	1.1971	-0.4027	0.1800	-0.5240	-1.1885	1.4309	1.0940	0.5928	0.0951	1.4300	0.4725	0.8412	2.6690	-0.3883	-0.1260	-1.8521	-0.9486	2.1369	2.3030	0.7093	0.4300	-1.3856	-0.0222	1.3570	-0.0468	2.2550	1.2046	-0.4898	0.1601	-0.5785	-1.2623	
0.2000	 4.01760351041171E-0003	2.6593	1.9365	1.4143	0.6220	-0.0579	1.2569	0.4848	1.1647	3.1598	-0.7724	-0.4712	-2.1286	-1.1994	2.6101	2.6593	0.9162	0.5378	-1.7944	-0.1931	1.5727	-0.0222	2.6177	1.0960	-0.7184	-0.0919	-0.9305	-1.6619	2.0301	1.4846	0.6537	-0.0486	1.1978	0.4596	1.2132	3.2493	-0.8180	-0.5257	-2.1973	-1.2817	2.7144	2.7241	0.9734	0.5933	-1.8911	-0.2460	1.5889	-0.0561	2.6691	1.1058	-0.8286	-0.1174	-0.9993	-1.7548	
