Arquivo: c:\arq\medidas\BBA_1303_063127\BBA_AMP09B_H.dat
Data: 1303	 Hora:  0734
Comentário: 
NomeParametro	 ValorParametro
Nmedias	5
PausaCorretora	3000
PausaShunt	2000
PausaLeitura	500
NumCiclos	3
 NPassosCor	9
DeltaShunt	1.50
TetaIni	-0.20
TetaFim	0.20
I[mA]	  32.8
ACH03B	DeltaPos^2	AMP09B	AMP01B_0	AMP02A_0	AMP02B_0	AMP03A_0	AMP03B_0	AMP04A_0	AMP04B_0	AMP05A_0	AMP05B_0	AMP06A_0	AMP06B_0	AMP07A_0	AMP07B_0	AMP08A_0	AMP08B_0	AMP09A_0	AMP09B_0	AMP10A_0	AMP10B_0	AMP11A_0	AMU11A_0	AMU11B_0	AMP11B_0	AMP12A_0	AMP12B_0	AMP01A_0	AMP01B_1	AMP02A_1	AMP02B_1	AMP03A_1	AMP03B_1	AMP04A_1	AMP04B_1	AMP05A_1	AMP05B_1	AMP06A_1	AMP06B_1	AMP07A_1	AMP07B_1	AMP08A_1	AMP08B_1	AMP09A_1	AMP09B_1	AMP10A_1	AMP10B_1	AMP11A_1	AMU11A_1	AMU11B_1	AMP11B_1	AMP12A_1	AMP12B_1	AMP01A_1	
-0.2000	 5.11583384038526E-0003	2.4151	-0.9171	1.2355	-1.8246	-2.1599	-2.5474	-0.4496	0.2447	-1.0417	-0.3307	-0.2111	-1.1326	1.6640	1.2604	-1.5903	-0.8155	2.1704	2.4151	-1.0088	-1.9154	-0.0117	1.6767	2.3368	-3.1896	-0.7238	-1.7501	-0.7093	-0.8070	1.1742	-1.8818	-2.0396	-2.4153	-0.4812	0.1884	-1.0066	-0.2612	-0.1944	-1.1496	1.5973	1.2275	-1.5352	-0.7850	2.0429	2.3012	-1.0078	-1.8773	0.0141	1.7090	2.3389	-3.1359	-0.7748	-1.7667	-0.5798	
-0.1500	 3.02618661354125E-0003	1.8584	-0.9297	1.0598	-1.8799	-1.6932	-2.1559	-0.4459	0.1143	-1.1819	-0.3245	-0.0231	-1.0665	1.1815	0.8718	-1.3218	-0.5882	1.6327	1.8584	-0.8129	-1.6557	-0.0199	1.3632	1.9242	-3.0079	-0.7143	-1.6050	-0.5759	-0.8452	1.0127	-1.9238	-1.6004	-2.0537	-0.4699	0.0710	-1.1550	-0.2712	-0.0101	-1.0796	1.1301	0.8472	-1.2795	-0.5649	1.5340	1.7708	-0.8122	-1.6266	0.0211	1.3882	1.9260	-2.9665	-0.7532	-1.6176	-0.4768	
-0.1000	 1.47674253968700E-0003	1.2897	-0.9458	0.8825	-1.9345	-1.2195	-1.7594	-0.4406	-0.0169	-1.3264	-0.3209	0.1680	-0.9982	0.6892	0.4751	-1.0495	-0.3571	1.0828	1.2897	-0.6135	-1.3912	0.0056	1.0424	1.5017	-2.8243	-0.7029	-1.4566	-0.4436	-0.8873	0.8497	-1.9648	-1.1547	-1.6880	-0.4576	-0.0470	-1.3072	-0.2836	0.1766	-1.0075	0.6536	0.4579	-1.0199	-0.3415	1.0131	1.2283	-0.6130	-1.3711	-0.0013	1.0597	1.5030	-2.7952	-0.7300	-1.4654	-0.3746	
-0.0500	 4.62517607944457E-0004	0.7143	-0.9644	0.7054	-1.9878	-0.7445	-1.3626	-0.4341	-0.1472	-1.4736	-0.3202	0.3606	-0.9283	0.1937	0.0743	-0.7755	-0.1253	0.5268	0.7143	-0.4125	-1.1254	0.0407	0.7171	1.0749	-2.6401	-0.6900	-1.3065	-0.3135	-0.9316	0.6869	-2.0048	-0.7076	-1.3223	-0.4436	-0.1642	-1.4625	-0.2990	0.3652	-0.9336	0.1744	0.0653	-0.7594	-0.1167	0.4878	0.6806	-0.4124	-1.1145	-0.0076	0.7273	1.0763	-2.6232	-0.7052	-1.3114	-0.2749	
0.0000	 2.68498244083311E-0005	0.1457	-0.9869	0.5319	-2.0386	-0.2773	-0.9731	-0.4266	-0.2742	-1.6206	-0.3219	0.5504	-0.8583	-0.2960	-0.3220	-0.5052	0.1040	-0.0234	0.1457	-0.2136	-0.8630	0.0222	0.3933	0.6504	-2.4589	-0.6753	-1.1573	-0.1888	-0.9793	0.5274	-2.0427	-0.2675	-0.9633	-0.4293	-0.2781	-1.6166	-0.3159	0.5511	-0.8601	-0.2998	-0.3233	-0.5014	0.1055	-0.0326	0.1383	-0.2143	-0.8610	0.0201	0.3958	0.6510	-2.4543	-0.6793	-1.1585	-0.1799	
0.0500	 1.33859259531485E-0004	-0.4202	-1.0120	0.3608	-2.0874	0.1850	-0.5884	-0.4173	-0.3992	-1.7682	-0.3262	0.7396	-0.7878	-0.7823	-0.7184	-0.2365	0.3318	-0.5702	-0.4202	-0.0157	-0.6018	0.0122	0.0691	0.2252	-2.2800	-0.6595	-1.0079	-0.0682	-1.0294	0.3703	-2.0784	0.1669	-0.6094	-0.4128	-0.3901	-1.7721	-0.3358	0.7358	-0.7858	-0.7704	-0.7110	-0.2457	0.3259	-0.5489	-0.4003	-0.0169	-0.6090	-0.0210	0.0648	0.2263	-2.2873	-0.6518	-1.0054	-0.0891	
0.1000	 7.86014833619978E-0004	-0.9849	-1.0403	0.1914	-2.1346	0.6435	-0.2074	-0.4065	-0.5221	-1.9179	-0.3333	0.9278	-0.7161	-1.2674	-1.1140	0.0312	0.5590	-1.1159	-0.9849	0.1820	-0.3412	-0.0192	-0.2569	-0.2005	-2.1013	-0.6419	-0.8574	0.0484	-1.0832	0.2151	-2.1124	0.5982	-0.2589	-0.3950	-0.5002	-1.9290	-0.3585	0.9203	-0.7103	-1.2395	-1.0988	0.0093	0.5462	-1.0646	-0.9378	0.1803	-0.3569	-0.0147	-0.2683	-0.1995	-2.1210	-0.6228	-0.8514	-0.0019	
0.1500	 2.01463459491046E-0003	-1.5474	-1.0718	0.0228	-2.1803	1.0983	0.1706	-0.3950	-0.6434	-2.0692	-0.3433	1.1166	-0.6430	-1.7509	-1.5100	0.2985	0.7856	-1.6597	-1.5474	0.3802	-0.0806	-0.0011	-0.5848	-0.6279	-1.9233	-0.6225	-0.7055	0.1613	-1.1406	0.0609	-2.1443	1.0250	0.0875	-0.3764	-0.6085	-2.0871	-0.3836	1.1047	-0.6335	-1.7056	-1.4858	0.2641	0.7657	-1.5790	-1.4735	0.3786	-0.1051	-0.0129	-0.6044	-0.6275	-1.9556	-0.5908	-0.6951	0.0804	
0.2000	 4.04490435606922E-0003	-2.1067	-1.1073	-0.1438	-2.2238	1.5481	0.5439	-0.3820	-0.7631	-2.2222	-0.3561	1.3057	-0.5688	-2.2308	-1.9054	0.5649	1.0121	-2.2006	-2.1067	0.5783	0.1795	0.0094	-0.9147	-1.0565	-1.7465	-0.6014	-0.5532	0.2710	-1.2034	-0.0897	-2.1726	1.4433	0.4254	-0.3557	-0.7138	-2.2455	-0.4120	1.2887	-0.5555	-2.1649	-1.8695	0.5177	0.9840	-2.0869	-2.0026	0.5771	0.1461	-0.0024	-0.9426	-1.0558	-1.7922	-0.5561	-0.5376	0.1552	
