Arquivo: c:\arq\medidas\BBA_1303_063127\BBA_AMP02A_H.dat
Data: 1303	 Hora:  0635
Comentário: 
NomeParametro	 ValorParametro
Nmedias	5
PausaCorretora	3000
PausaShunt	2000
PausaLeitura	500
NumCiclos	3
 NPassosCor	9
DeltaShunt	3.00
TetaIni	-0.20
TetaFim	0.20
I[mA]	 167.1
ACH09B	DeltaPos^2	AMP02A	AMP01B_0	AMP02A_0	AMP02B_0	AMP03A_0	AMP03B_0	AMP04A_0	AMP04B_0	AMP05A_0	AMP05B_0	AMP06A_0	AMP06B_0	AMP07A_0	AMP07B_0	AMP08A_0	AMP08B_0	AMP09A_0	AMP09B_0	AMP10A_0	AMP10B_0	AMP11A_0	AMU11A_0	AMU11B_0	AMP11B_0	AMP12A_0	AMP12B_0	AMP01A_0	AMP01B_1	AMP02A_1	AMP02B_1	AMP03A_1	AMP03B_1	AMP04A_1	AMP04B_1	AMP05A_1	AMP05B_1	AMP06A_1	AMP06B_1	AMP07A_1	AMP07B_1	AMP08A_1	AMP08B_1	AMP09A_1	AMP09B_1	AMP10A_1	AMP10B_1	AMP11A_1	AMU11A_1	AMU11B_1	AMP11B_1	AMP12A_1	AMP12B_1	AMP01A_1	
-0.2000	 3.15318927965545E-0008	-0.5692	0.9145	-0.5692	-3.0011	1.9625	1.5032	-0.8428	-1.2485	-1.2678	0.7582	1.0827	-0.9942	-1.9910	-1.3922	0.7114	0.9174	-2.6686	-2.4106	-0.0475	0.0782	-0.3417	0.8581	0.4922	-1.4362	-1.5023	-1.3310	2.1276	0.9146	-0.5691	-3.0010	1.9624	1.5029	-0.8426	-1.2484	-1.2680	0.7578	1.0829	-0.9941	-1.9911	-1.3921	0.7113	0.9176	-2.6687	-2.4107	-0.0476	0.0781	-0.3399	0.8582	0.4924	-1.4362	-1.5026	-1.3312	2.1275	
-0.1500	 4.55996719631195E-0008	-0.2912	0.4609	-0.2912	-2.7608	1.4142	0.9019	-0.6983	-0.9922	-1.4289	0.4397	1.0034	-0.9181	-1.6794	-1.2329	0.4588	0.7743	-2.0779	-1.8657	-0.0815	-0.1175	-0.3596	0.7700	0.5458	-1.6767	-1.2979	-1.2848	1.5819	0.4610	-0.2913	-2.7607	1.4146	0.9019	-0.6984	-0.9922	-1.4285	0.4399	1.0033	-0.9184	-1.6797	-1.2331	0.4589	0.7741	-2.0778	-1.8656	-0.0812	-0.1173	-0.3220	0.7698	0.5457	-1.6766	-1.2977	-1.2845	1.5814	
-0.1000	 4.78663710914268E-0008	-0.0086	-0.0050	-0.0086	-2.5140	0.8537	0.2864	-0.5520	-0.7311	-1.5915	0.1159	0.9225	-0.8410	-1.3614	-1.0703	0.2014	0.6278	-1.4731	-1.3085	-0.1142	-0.3155	-0.3303	0.6763	0.5965	-1.9207	-1.0877	-1.2350	1.0200	-0.0049	-0.0087	-2.5144	0.8536	0.2865	-0.5522	-0.7313	-1.5915	0.1159	0.9224	-0.8410	-1.3612	-1.0704	0.2014	0.6274	-1.4729	-1.3083	-0.1143	-0.3160	-0.3554	0.6765	0.5965	-1.9206	-1.0879	-1.2354	1.0197	
-0.0500	 4.26450204101308E-0008	0.2748	-0.4758	0.2748	-2.2655	0.2881	-0.3335	-0.4055	-0.4695	-1.7551	-0.2094	0.8410	-0.7638	-1.0412	-0.9069	-0.0575	0.4805	-0.8647	-0.7481	-0.1457	-0.5141	-0.3674	0.5795	0.6447	-2.1652	-0.8752	-1.1844	0.4500	-0.4756	0.2749	-2.2655	0.2880	-0.3335	-0.4055	-0.4697	-1.7552	-0.2095	0.8413	-0.7637	-1.0412	-0.9073	-0.0579	0.4804	-0.8647	-0.7477	-0.1460	-0.5143	-0.3475	0.5796	0.6448	-2.1652	-0.8755	-1.1846	0.4502	
0.0000	 6.41637146499707E-0008	0.5579	-0.9496	0.5579	-2.0152	-0.2801	-0.9545	-0.2583	-0.2076	-1.9192	-0.5350	0.7601	-0.6862	-0.7213	-0.7452	-0.3169	0.3333	-0.2550	-0.1870	-0.1761	-0.7117	-0.3380	0.4789	0.6896	-2.4096	-0.6609	-1.1322	-0.1230	-0.9494	0.5583	-2.0150	-0.2803	-0.9543	-0.2588	-0.2080	-1.9192	-0.5350	0.7601	-0.6863	-0.7209	-0.7451	-0.3172	0.3331	-0.2546	-0.1868	-0.1762	-0.7121	-0.3455	0.4787	0.6896	-2.4095	-0.6613	-1.1324	-0.1230	
0.0500	 4.10805267196456E-0008	0.8413	-1.4253	0.8413	-1.7630	-0.8490	-1.5742	-0.1110	0.0538	-2.0851	-0.8617	0.6797	-0.6078	-0.4027	-0.5850	-0.5760	0.1868	0.3524	0.3718	-0.2043	-0.9081	-0.3480	0.3745	0.7303	-2.6531	-0.4456	-1.0781	-0.6999	-1.4258	0.8414	-1.7629	-0.8489	-1.5745	-0.1111	0.0541	-2.0847	-0.8615	0.6799	-0.6079	-0.4023	-0.5849	-0.5760	0.1869	0.3524	0.3716	-0.2040	-0.9080	-0.3289	0.3743	0.7302	-2.6534	-0.4455	-1.0777	-0.6999	
0.1000	 7.27010943077037E-0008	1.1235	-1.9010	1.1235	-1.5104	-1.4158	-2.1905	0.0366	0.3146	-2.2518	-1.1878	0.6012	-0.5289	-0.0871	-0.4282	-0.8331	0.0416	0.9549	0.9252	-0.2305	-1.1023	-0.3497	0.2664	0.7668	-2.8957	-0.2292	-1.0218	-1.2759	-1.9011	1.1236	-1.5103	-1.4157	-2.1905	0.0367	0.3148	-2.2521	-1.1880	0.6013	-0.5287	-0.0869	-0.4281	-0.8329	0.0418	0.9548	0.9253	-0.2303	-1.1022	-0.3383	0.2662	0.7666	-2.8957	-0.2285	-1.0210	-1.2762	
0.1500	 8.16724176828256E-0008	1.4043	-2.3746	1.4043	-1.2577	-1.9810	-2.8018	0.1856	0.5750	-2.4221	-1.5159	0.5240	-0.4483	0.2247	-0.2751	-1.0889	-0.1014	1.5508	1.4731	-0.2547	-1.2944	-0.3451	0.1549	0.7995	-3.1368	-0.0119	-0.9638	-1.8513	-2.3749	1.4048	-1.2572	-1.9811	-2.8018	0.1854	0.5753	-2.4219	-1.5160	0.5239	-0.4482	0.2248	-0.2755	-1.0885	-0.1014	1.5507	1.4726	-0.2544	-1.2940	-0.3365	0.1545	0.7991	-3.1371	-0.0117	-0.9637	-1.8515	
0.2000	 9.44282966756458E-0008	1.6835	-2.8440	1.6835	-1.0055	-2.5402	-3.4041	0.3355	0.8348	-2.5944	-1.8443	0.4497	-0.3660	0.5300	-0.1281	-1.3397	-0.2408	2.1357	2.0103	-0.2761	-1.4827	-0.3622	0.0399	0.8271	-3.3758	0.2056	-0.9035	-2.4205	-2.8436	1.6837	-1.0055	-2.5404	-3.4042	0.3351	0.8344	-2.5941	-1.8441	0.4496	-0.3662	0.5295	-0.1280	-1.3404	-0.2414	2.1362	2.0106	-0.2762	-1.4830	-0.3260	0.0399	0.8269	-3.3760	0.2055	-0.9036	-2.4203	
