Arquivo: c:\arq\medidas\BBA_1206_074902\BBA_AMP03C_V.dat
Data: 1206	 Hora:  0806
Comentário: 
NomeParametro	 ValorParametro
Nmedias	5
PausaCorretora	3000
PausaShunt	2000
PausaLeitura	500
NumCiclos	3
 NPassosCor	7
DeltaShunt	3.00
TetaIni	-0.10
TetaFim	0.10
I[mA]	 150.4
ACV09B	DeltaPos^2	AMP03C	AMP01B_0	AMP02A_0	AMP02B_0	AMP03A_0	AMP03B_0	AMP03C_0	AMP04A_0	AMP04B_0	AMP05A_0	AMP05B_0	AMP06A_0	AMP06B_0	AMP07A_0	AMP07B_0	AMP08A_0	AMP08B_0	AMP09A_0	AMP09B_0	AMP10A_0	AMP10B_0	AMU11A_0	AMU11B_0	AMP12A_0	AMP12B_0	AMP01A_0	AMP01B_1	AMP02A_1	AMP02B_1	AMP03A_1	AMP03B_1	AMP03C_1	AMP04A_1	AMP04B_1	AMP05A_1	AMP05B_1	AMP06A_1	AMP06B_1	AMP07A_1	AMP07B_1	AMP08A_1	AMP08B_1	AMP09A_1	AMP09B_1	AMP10A_1	AMP10B_1	AMU11A_1	AMU11B_1	AMP12A_1	AMP12B_1	AMP01A_1	
-0.1000	 1.27313045869553E-0002	-1.2878	0.1642	0.4981	1.0591	1.2494	1.3621	-1.2878	-0.1405	-0.2437	1.3132	1.1226	0.9510	-1.4855	-1.0183	1.1814	1.7012	0.4322	0.3404	-0.8219	-0.0458	0.2838	0.9118	2.0733	1.2357	0.2224	-0.6593	0.0318	0.3834	0.9726	1.1765	1.4910	-1.0161	-0.0247	-0.1770	1.3486	0.9951	0.8944	-1.4233	-0.8803	1.1321	1.6298	0.3189	0.2033	-0.6523	0.0645	0.3024	0.8687	2.0093	1.2331	0.3244	-0.4979	
-0.0667	 5.39213843716852E-0003	-0.7493	0.0312	0.3410	0.8654	1.0257	1.6065	-0.7493	0.0483	-0.2537	1.1856	1.0535	0.9854	-1.2827	-0.7032	0.9248	1.4926	0.2852	0.2343	-0.5528	0.1513	0.3989	0.9382	1.8907	1.1457	0.3395	-0.4220	-0.0547	0.2665	0.8092	0.9779	1.6896	-0.5721	0.1239	-0.2102	1.2089	0.9708	0.9486	-1.2423	-0.6135	0.8922	1.4461	0.2115	0.1445	-0.4425	0.2230	0.4098	0.9100	1.8491	1.1438	0.4058	-0.3170	
-0.0333	 1.08163031190359E-0003	-0.1991	-0.1051	0.1808	0.6674	0.7968	1.8550	-0.1991	0.2415	-0.2636	1.0561	0.9825	1.0197	-1.0760	-0.3816	0.6632	1.2796	0.1353	0.1248	-0.2781	0.3521	0.5145	0.9643	1.7047	1.0541	0.4593	-0.1795	-0.1434	0.1474	0.6424	0.7753	1.8917	-0.1194	0.2752	-0.2441	1.0665	0.9458	1.0036	-1.0579	-0.3412	0.6488	1.2595	0.1024	0.0847	-0.2283	0.3843	0.5197	0.9514	1.6856	1.0532	0.4887	-0.1323	
0.0000	 6.58928667543595E-0005	0.3550	-0.2424	0.0185	0.4678	0.5654	2.1050	0.3550	0.4359	-0.2733	0.9257	0.9106	1.0543	-0.8674	-0.0574	0.3995	1.0655	-0.0162	0.0138	-0.0011	0.5544	0.6319	0.9909	1.5165	0.9612	0.5797	0.0649	-0.2326	0.0271	0.4747	0.5708	2.0944	0.3358	0.4276	-0.2779	0.9233	0.9203	1.0584	-0.8720	-0.0674	0.4030	1.0706	-0.0080	0.0233	-0.0128	0.5468	0.6308	0.9933	1.5205	0.9615	0.5724	0.0537	
0.0333	 2.44082690823244E-0003	0.9121	-0.3813	-0.1444	0.2667	0.3318	2.3553	0.9121	0.6319	-0.2826	0.7951	0.8377	1.0880	-0.6577	0.2680	0.1343	0.8486	-0.1690	-0.0977	0.2785	0.7586	0.7498	1.0176	1.3267	0.8681	0.7008	0.3106	-0.3227	-0.0937	0.3056	0.3641	2.2980	0.7933	0.5812	-0.3116	0.7798	0.8945	1.1129	-0.6851	0.2072	0.1560	0.8804	-0.1194	-0.0382	0.2048	0.7109	0.7420	1.0353	1.3538	0.8690	0.6563	0.2408	
0.0667	 8.23365745466939E-0003	1.4688	-0.5206	-0.3078	0.0644	0.0975	2.6048	1.4688	0.8280	-0.2913	0.6651	0.7636	1.1216	-0.4475	0.5935	-0.1309	0.6319	-0.3220	-0.2099	0.5579	0.9628	0.8682	1.0441	1.1358	0.7744	0.8219	0.5574	-0.4134	-0.2150	0.1357	0.1572	2.5011	1.2517	0.7349	-0.3452	0.6364	0.8682	1.1677	-0.4977	0.4822	-0.0910	0.6906	-0.2304	-0.0996	0.4223	0.8747	0.8535	1.0770	1.1871	0.7765	0.7406	0.4289	
0.1000	 1.74310012542580E-0002	2.0221	-0.6598	-0.4708	-0.1379	-0.1374	2.8536	2.0221	1.0245	-0.2997	0.5356	0.6892	1.1546	-0.2376	0.9188	-0.3965	0.4156	-0.4747	-0.3221	0.8374	1.1676	0.9869	1.0715	0.9444	0.6808	0.9431	0.8043	-0.5037	-0.3358	-0.0347	-0.0500	2.7035	1.7074	0.8890	-0.3780	0.4936	0.8413	1.2217	-0.3105	0.7568	-0.3384	0.5011	-0.3416	-0.1611	0.6393	1.0388	0.9652	1.1198	1.0195	0.6837	0.8245	0.6167	
