Arquivo: c:\arq\medidas\BBA_1303_063127\BBA_AMP11A_V.dat
Data: 1303	 Hora:  0747
Comentário: 
NomeParametro	 ValorParametro
Nmedias	5
PausaCorretora	3000
PausaShunt	2000
PausaLeitura	500
NumCiclos	3
 NPassosCor	9
DeltaShunt	1.50
TetaIni	-0.20
TetaFim	0.20
I[mA]	  26.1
ACV01B	DeltaPos^2	AMP11A	AMP01B_0	AMP02A_0	AMP02B_0	AMP03A_0	AMP03B_0	AMP04A_0	AMP04B_0	AMP05A_0	AMP05B_0	AMP06A_0	AMP06B_0	AMP07A_0	AMP07B_0	AMP08A_0	AMP08B_0	AMP09A_0	AMP09B_0	AMP10A_0	AMP10B_0	AMP11A_0	AMU11A_0	AMU11B_0	AMP11B_0	AMP12A_0	AMP12B_0	AMP01A_0	AMP01B_1	AMP02A_1	AMP02B_1	AMP03A_1	AMP03B_1	AMP04A_1	AMP04B_1	AMP05A_1	AMP05B_1	AMP06A_1	AMP06B_1	AMP07A_1	AMP07B_1	AMP08A_1	AMP08B_1	AMP09A_1	AMP09B_1	AMP10A_1	AMP10B_1	AMP11A_1	AMU11A_1	AMU11B_1	AMP11B_1	AMP12A_1	AMP12B_1	AMP01A_1	
-0.2000	 6.55976144421249E-0003	-0.0102	-2.4954	-1.6737	-0.5530	-0.0888	3.6911	1.3700	-1.1660	-1.0101	1.5575	2.1166	0.8690	2.2001	-2.0626	-0.6089	-0.5563	0.1965	1.4430	0.9433	-0.6667	-0.0102	-0.8348	2.4786	3.5799	2.4151	2.0740	1.5469	-2.6286	-1.7533	-0.5486	-0.0336	3.7216	1.3544	-1.2563	-1.1440	1.6704	2.2112	0.9343	2.2495	-2.1813	-0.6659	-0.5188	0.2923	1.4244	0.8970	-0.7612	-0.0123	-0.9385	2.5175	3.6068	2.4884	2.1639	1.6448	
-0.1500	 4.06618592783935E-0003	-0.0412	-1.9976	-1.2977	-0.3258	0.0510	3.3270	1.1716	-0.9572	-0.5613	1.4012	1.8726	0.4765	1.7021	-1.4924	-0.2243	-0.4447	0.1384	1.1392	0.8737	-0.3547	-0.0412	-0.4020	2.2513	2.8746	2.0841	1.7473	1.2338	-2.1030	-1.3608	-0.3229	0.0956	3.3521	1.1591	-1.0285	-0.6666	1.4893	1.9465	0.5284	1.7421	-1.5863	-0.2703	-0.4167	0.2123	1.1264	0.8386	-0.4286	-0.0089	-0.4836	2.2822	2.8974	2.1421	1.8184	1.3109	
-0.1000	 2.00821842706352E-0003	-0.0161	-1.4921	-0.9183	-0.0986	0.1926	2.9586	0.9721	-0.7442	-0.1055	1.2404	1.6232	0.0796	1.1988	-0.9139	0.1627	-0.3321	0.0798	0.8317	0.8040	-0.0400	-0.0161	0.0352	2.0220	2.1584	1.7494	1.4159	0.9155	-1.5664	-0.9629	-0.0971	0.2230	2.9772	0.9644	-0.7942	-0.1795	1.3020	1.6751	0.1165	1.2286	-0.9806	0.1303	-0.3134	0.1307	0.8240	0.7803	-0.0918	-0.0153	-0.0223	2.0437	2.1759	1.7899	1.4663	0.9697	
-0.0500	 5.55799623429823E-0004	-0.0147	-0.9417	-0.5059	0.1464	0.3433	2.5578	0.7587	-0.5111	0.3911	1.0627	1.3507	-0.3513	0.6514	-0.2840	0.5831	-0.2104	0.0164	0.4976	0.7279	0.3011	-0.0147	0.5090	1.7733	1.3759	1.3844	1.0550	0.5682	-0.9809	-0.5296	0.1471	0.3608	2.5680	0.7537	-0.5374	0.3524	1.0945	1.3779	-0.3317	0.6675	-0.3190	0.5659	-0.2007	0.0429	0.4942	0.7156	0.2740	-0.0109	0.4791	1.7847	1.3861	1.4058	1.0815	0.5968	
0.0000	 1.87221203175956E-0006	-0.0379	-0.3924	-0.0961	0.3885	0.4933	2.1564	0.5462	-0.2778	0.8851	0.8839	1.0778	-0.7807	0.1061	0.3440	1.0016	-0.0887	-0.0456	0.1649	0.6524	0.6396	-0.0379	0.9801	1.5255	0.5936	1.0205	0.6948	0.2231	-0.3946	-0.0974	0.3885	0.4944	2.1574	0.5458	-0.2796	0.8829	0.8853	1.0797	-0.7795	0.1072	0.3418	1.0006	-0.0881	-0.0441	0.1650	0.6515	0.6380	0.0080	0.9784	1.5256	0.5939	1.0217	0.6961	0.2245	
0.0500	 4.26418755206312E-0004	-0.0143	0.1558	0.3144	0.6310	0.6417	1.7520	0.3348	-0.0434	1.3806	0.7042	0.8029	-1.2103	-0.4418	0.9726	1.4198	0.0332	-0.1082	-0.1687	0.5773	0.9794	-0.0143	1.4498	1.2759	-0.1926	0.6543	0.3336	-0.1221	0.1900	0.3354	0.6308	0.6284	1.7430	0.3377	-0.0206	1.4146	0.6762	0.7790	-1.2277	-0.4556	1.0036	1.4354	0.0249	-0.1312	-0.1656	0.5883	1.0031	-0.0318	1.4761	1.2658	-0.2019	0.6353	0.3103	-0.1473	
0.1000	 1.82728471048256E-0003	-0.0060	0.7032	0.7237	0.8738	0.7914	1.3445	0.1217	0.1906	1.8756	0.5237	0.5273	-1.6402	-0.9907	1.6010	1.8381	0.1553	-0.1711	-0.5031	0.5019	1.3191	-0.0060	1.9195	1.0250	-0.9826	0.2876	-0.0273	-0.4674	0.7740	0.7665	0.8731	0.7634	1.3263	0.1284	0.2379	1.9455	0.4650	0.4775	-1.6760	-1.0194	1.6645	1.8693	0.1380	-0.2188	-0.4967	0.5242	1.3679	-0.0158	1.9747	1.0039	-1.0019	0.2480	-0.0755	-0.5203	
0.1500	 4.06058198854268E-0003	0.0086	1.2421	1.1281	1.1157	0.9410	0.9383	-0.0903	0.4219	2.3624	0.3456	0.2549	-2.0649	-1.5340	2.2202	2.2506	0.2756	-0.2341	-0.8338	0.4272	1.6560	0.0086	2.3829	0.7738	-1.7644	-0.0770	-0.3824	-0.8058	1.3475	1.1918	1.1141	0.8986	0.9108	-0.0796	0.4930	2.4664	0.2579	0.1804	-2.1179	-1.5763	2.3142	2.2975	0.2494	-0.3061	-0.8240	0.4611	1.7288	-0.0027	2.4640	0.7420	-1.7921	-0.1359	-0.4548	-0.8841	
0.2000	 6.95368223317547E-0003	-0.0216	1.7674	1.5239	1.3549	1.0926	0.5360	-0.3015	0.6495	2.8373	0.1714	-0.0124	-2.4815	-2.0676	2.8246	2.6548	0.3937	-0.2976	-1.1586	0.3545	1.9874	-0.0216	2.8360	0.5234	-2.5312	-0.4373	-0.7306	-1.1350	1.9056	1.6076	1.3530	1.0369	0.5000	-0.2872	0.7425	2.9727	0.0560	-0.1103	-2.5500	-2.1229	2.9478	2.7155	0.3583	-0.3927	-1.1448	0.3995	2.0832	-0.0109	2.9416	0.4825	-2.5668	-0.5138	-0.8251	-1.2370	
