Arquivo: c:\arq\medidas\BBA_1303_063127\BBA_AMP10B_H.dat
Data: 1303	 Hora:  0741
Comentário: 
NomeParametro	 ValorParametro
Nmedias	5
PausaCorretora	3000
PausaShunt	2000
PausaLeitura	500
NumCiclos	3
 NPassosCor	9
DeltaShunt	3.00
TetaIni	-0.20
TetaFim	0.20
I[mA]	  27.6
ACH03A	DeltaPos^2	AMP10B	AMP01B_0	AMP02A_0	AMP02B_0	AMP03A_0	AMP03B_0	AMP04A_0	AMP04B_0	AMP05A_0	AMP05B_0	AMP06A_0	AMP06B_0	AMP07A_0	AMP07B_0	AMP08A_0	AMP08B_0	AMP09A_0	AMP09B_0	AMP10A_0	AMP10B_0	AMP11A_0	AMU11A_0	AMU11B_0	AMP11B_0	AMP12A_0	AMP12B_0	AMP01A_0	AMP01B_1	AMP02A_1	AMP02B_1	AMP03A_1	AMP03B_1	AMP04A_1	AMP04B_1	AMP05A_1	AMP05B_1	AMP06A_1	AMP06B_1	AMP07A_1	AMP07B_1	AMP08A_1	AMP08B_1	AMP09A_1	AMP09B_1	AMP10A_1	AMP10B_1	AMP11A_1	AMU11A_1	AMU11B_1	AMP11B_1	AMP12A_1	AMP12B_1	AMP01A_1	
-0.2000	 3.36143757294696E-0003	-1.8826	-0.3023	1.0227	-2.1014	-1.8212	-2.7952	-0.1838	0.4364	-1.6464	-0.9087	0.0407	-0.8496	1.2051	0.7085	-1.4949	-0.5958	2.1141	2.2032	-1.1273	-1.8826	-0.0305	2.0681	2.6270	-3.2427	-1.0084	-1.9426	-0.0930	-0.2379	0.9536	-2.1569	-1.7131	-2.6859	-0.2409	0.3673	-1.5872	-0.8275	0.0181	-0.8965	1.1879	0.7197	-1.4825	-0.6074	2.0318	2.1386	-1.0981	-1.8584	0.0152	2.0614	2.5943	-3.2035	-1.0560	-1.9588	-0.0065	
-0.1500	 2.22084257304732E-0003	-1.6323	-0.4580	0.8970	-2.0931	-1.4343	-2.3438	-0.2456	0.2594	-1.6441	-0.7662	0.1668	-0.8514	0.8332	0.4514	-1.2506	-0.4222	1.5909	1.6989	-0.9041	-1.6323	-0.0140	1.6665	2.1512	-3.0474	-0.9331	-1.7539	-0.1040	-0.4062	0.8409	-2.1380	-1.3464	-2.2548	-0.2910	0.2034	-1.5958	-0.6999	0.1488	-0.8893	0.8191	0.4607	-1.2411	-0.4320	1.5237	1.6464	-0.8811	-1.6129	0.0085	1.6605	2.1238	-3.0154	-0.9725	-1.7680	-0.0337	
-0.1000	 1.33141454132982E-0003	-1.3793	-0.6189	0.7710	-2.0826	-1.0461	-1.8868	-0.3049	0.0813	-1.6435	-0.6239	0.2950	-0.8522	0.4560	0.1902	-1.0048	-0.2471	1.0591	1.1856	-0.6784	-1.3793	-0.0133	1.2570	1.6653	-2.8497	-0.8558	-1.5630	-0.1184	-0.5787	0.7272	-2.1170	-0.9784	-1.8174	-0.3398	0.0375	-1.6064	-0.5725	0.2810	-0.8814	0.4457	0.1977	-0.9968	-0.2542	1.0070	1.1444	-0.6605	-1.3640	-0.0142	1.2526	1.6441	-2.8248	-0.8854	-1.5734	-0.0644	
-0.0500	 6.68869514787089E-0004	-1.1254	-0.7828	0.6458	-2.0709	-0.6569	-1.4285	-0.3648	-0.0971	-1.6449	-0.4832	0.4239	-0.8522	0.0775	-0.0727	-0.7571	-0.0707	0.5230	0.6684	-0.4519	-1.1254	0.0017	0.8436	1.1750	-2.6518	-0.7771	-1.3705	-0.1364	-0.7544	0.6153	-2.0947	-0.6085	-1.3792	-0.3894	-0.1273	-1.6182	-0.4463	0.4144	-0.8728	0.0702	-0.0671	-0.7514	-0.0755	0.4858	0.6389	-0.4392	-1.1145	0.0094	0.8398	1.1595	-2.6342	-0.7977	-1.3775	-0.0982	
0.0000	 2.27526587041575E-0004	-0.8714	-0.9498	0.5225	-2.0574	-0.2696	-0.9720	-0.4239	-0.2741	-1.6473	-0.3443	0.5528	-0.8511	-0.3012	-0.3359	-0.5109	0.1054	-0.0136	0.1508	-0.2253	-0.8714	0.0025	0.4271	0.6813	-2.4542	-0.6963	-1.1768	-0.1580	-0.9339	0.5048	-2.0705	-0.2411	-0.9430	-0.4382	-0.2916	-1.6313	-0.3225	0.5472	-0.8630	-0.3045	-0.3321	-0.5068	0.1027	-0.0354	0.1335	-0.2176	-0.8649	0.0043	0.4246	0.6719	-2.4438	-0.7079	-1.1802	-0.1358	
0.0500	 2.21206414394974E-0005	-0.6179	-1.1199	0.4006	-2.0421	0.1153	-0.5174	-0.4815	-0.4502	-1.6515	-0.2075	0.6817	-0.8493	-0.6791	-0.5999	-0.2646	0.2813	-0.5492	-0.3666	0.0013	-0.6179	0.0131	0.0091	0.1857	-2.2575	-0.6144	-0.9831	-0.1832	-1.1161	0.3959	-2.0447	0.1242	-0.5086	-0.4860	-0.4549	-1.6455	-0.1997	0.6803	-0.8527	-0.6793	-0.5982	-0.2624	0.2811	-0.5566	-0.3726	0.0042	-0.6153	-0.0174	0.0068	0.1814	-2.2547	-0.6168	-0.9828	-0.1773	
0.1000	 3.84102617261474E-0005	-0.3638	-1.2938	0.2800	-2.0251	0.4986	-0.0637	-0.5398	-0.6254	-1.6568	-0.0718	0.8108	-0.8469	-1.0577	-0.8655	-0.0177	0.4578	-1.0868	-0.8853	0.2285	-0.3638	-0.0108	-0.4128	-0.3135	-2.0604	-0.5305	-0.7872	-0.2127	-1.3014	0.2883	-2.0173	0.4877	-0.0751	-0.5335	-0.6178	-1.6618	-0.0787	0.8138	-0.8414	-1.0548	-0.8656	-0.0177	0.4597	-1.0790	-0.8794	0.2266	-0.3652	-0.0087	-0.4139	-0.3116	-2.0648	-0.5235	-0.7835	-0.2224	
0.1500	 2.80133807473414E-0004	-0.1106	-1.4701	0.1613	-2.0066	0.8781	0.3863	-0.5966	-0.7996	-1.6637	0.0620	0.9400	-0.8436	-1.4340	-1.1304	0.2278	0.6335	-1.6209	-1.4012	0.4549	-0.1106	-0.0005	-0.8350	-0.8124	-1.8642	-0.4451	-0.5915	-0.2453	-1.4896	0.1825	-1.9881	0.8477	0.3551	-0.5799	-0.7789	-1.6788	0.0404	0.9469	-0.8294	-1.4279	-1.1318	0.2263	0.6377	-1.5986	-1.3833	0.4481	-0.1160	-0.0093	-0.8353	-0.8050	-1.8758	-0.4291	-0.5838	-0.2715	
0.2000	 7.71674382836516E-0004	0.1414	-1.6492	0.0440	-1.9864	1.2528	0.8310	-0.6523	-0.9718	-1.6719	0.1932	1.0687	-0.8396	-1.8081	-1.3952	0.4714	0.8080	-2.1501	-1.9125	0.6805	0.1414	0.0050	-1.2563	-1.3095	-1.6691	-0.3584	-0.3950	-0.2818	-1.6807	0.0789	-1.9569	1.2023	0.7785	-0.6246	-0.9376	-1.6976	0.1569	1.0799	-0.8164	-1.7969	-1.3978	0.4683	0.8143	-2.1124	-1.8824	0.6690	0.1320	-0.0096	-1.2561	-1.2962	-1.6881	-0.3326	-0.3838	-0.3249	
