Arquivo: c:\arq\medidas\BBA_1303_063127\BBA_AMP02B_H.dat
Data: 1303	 Hora:  0639
Comentário: 
NomeParametro	 ValorParametro
Nmedias	5
PausaCorretora	3000
PausaShunt	2000
PausaLeitura	500
NumCiclos	3
 NPassosCor	9
DeltaShunt	3.00
TetaIni	-0.20
TetaFim	0.20
I[mA]	 166.5
ACH07A	DeltaPos^2	AMP02B	AMP01B_0	AMP02A_0	AMP02B_0	AMP03A_0	AMP03B_0	AMP04A_0	AMP04B_0	AMP05A_0	AMP05B_0	AMP06A_0	AMP06B_0	AMP07A_0	AMP07B_0	AMP08A_0	AMP08B_0	AMP09A_0	AMP09B_0	AMP10A_0	AMP10B_0	AMP11A_0	AMU11A_0	AMU11B_0	AMP11B_0	AMP12A_0	AMP12B_0	AMP01A_0	AMP01B_1	AMP02A_1	AMP02B_1	AMP03A_1	AMP03B_1	AMP04A_1	AMP04B_1	AMP05A_1	AMP05B_1	AMP06A_1	AMP06B_1	AMP07A_1	AMP07B_1	AMP08A_1	AMP08B_1	AMP09A_1	AMP09B_1	AMP10A_1	AMP10B_1	AMP11A_1	AMU11A_1	AMU11B_1	AMP11B_1	AMP12A_1	AMP12B_1	AMP01A_1	
-0.2000	 1.10237711455555E-0002	-3.1141	1.4778	-0.3710	-3.1141	1.2783	1.0750	-0.3436	-0.9380	-2.4177	-0.3121	1.5952	-0.4521	-2.9723	-3.3057	0.2307	1.3773	-0.7491	-1.3724	-0.5837	-0.4586	-0.3456	1.8955	1.6705	-1.4666	-1.7638	-1.8090	2.3693	1.3900	-0.3228	-3.0826	1.2646	1.0161	-0.4140	-0.9605	-2.2928	-0.2289	1.4780	-0.5416	-2.7744	-3.1193	0.1134	1.2533	-0.5916	-1.1854	-0.6466	-0.5623	-0.3540	1.9206	1.7380	-1.5096	-1.7548	-1.8495	2.2439	
-0.1500	 8.48048500864162E-0003	-2.8431	0.8815	-0.1377	-2.8431	0.8888	0.5682	-0.3211	-0.7548	-2.2981	-0.3716	1.3885	-0.5094	-2.4199	-2.6821	0.0896	1.1183	-0.6124	-1.0688	-0.4878	-0.5266	-0.3275	1.5541	1.4384	-1.7031	-1.4923	-1.6453	1.7583	0.8047	-0.0959	-2.8159	0.8773	0.5172	-0.3827	-0.7745	-2.1881	-0.2987	1.2848	-0.5876	-2.2459	-2.5174	-0.0130	1.0098	-0.4749	-0.9055	-0.5425	-0.6175	-0.3003	1.5762	1.4977	-1.7400	-1.4841	-1.6805	1.6483	
-0.1000	 6.20291792915399E-0003	-2.5655	0.2694	0.0994	-2.5655	0.4923	0.0522	-0.2994	-0.5694	-2.1744	-0.4304	1.1776	-0.5683	-1.8526	-2.0423	-0.0542	0.8542	-0.4742	-0.7593	-0.3902	-0.5961	-0.3339	1.2048	1.2007	-1.9424	-1.2154	-1.4784	1.1288	0.2039	0.1350	-2.5422	0.4824	0.0090	-0.3512	-0.5854	-2.0809	-0.3687	1.0891	-0.6345	-1.7027	-1.9004	-0.1413	0.7621	-0.3564	-0.6191	-0.4363	-0.6731	-0.3522	1.2243	1.2521	-1.9738	-1.2078	-1.5080	1.0345	
-0.0500	 4.15552007633600E-0003	-2.2821	-0.3573	0.3397	-2.2821	0.0879	-0.4733	-0.2775	-0.3810	-2.0475	-0.4894	0.9609	-0.6288	-1.2692	-1.3832	-0.2009	0.5837	-0.3335	-0.4431	-0.2904	-0.6673	-0.3374	0.8461	0.9568	-2.1852	-0.9319	-1.3073	0.4807	-0.4104	0.3693	-2.2627	0.0796	-0.5091	-0.3194	-0.3936	-1.9714	-0.4397	0.8884	-0.6823	-1.1461	-1.2672	-0.2722	0.5082	-0.2370	-0.3277	-0.3279	-0.7303	-0.3124	0.8624	0.9994	-2.2108	-0.9254	-1.3314	0.4036	
0.0000	 2.58425888559020E-0003	-1.9984	-0.9813	0.5788	-1.9984	-0.3149	-0.9957	-0.2553	-0.1933	-1.9220	-0.5490	0.7460	-0.6879	-0.6884	-0.7268	-0.3459	0.3144	-0.1958	-0.1305	-0.1897	-0.7367	-0.3259	0.4854	0.7107	-2.4255	-0.6486	-1.1362	-0.1664	-1.0224	0.6018	-1.9836	-0.3204	-1.0230	-0.2885	-0.2036	-1.8617	-0.5095	0.6890	-0.7302	-0.5910	-0.6355	-0.4021	0.2548	-0.1195	-0.0394	-0.2189	-0.7858	-0.3368	0.4994	0.7456	-2.4450	-0.6434	-1.1553	-0.2264	
0.0500	 1.35134473530218E-0003	-1.7114	-1.6109	0.8192	-1.7114	-0.7210	-1.5201	-0.2325	-0.0049	-1.7956	-0.6091	0.5298	-0.7478	-0.1029	-0.0650	-0.4907	0.0426	-0.0601	0.1825	-0.0865	-0.8045	-0.3638	0.1183	0.4588	-2.6671	-0.3619	-0.9615	-0.8224	-1.6390	0.8357	-1.7012	-0.7244	-1.5390	-0.2561	-0.0118	-1.7523	-0.5809	0.4889	-0.7777	-0.0325	0.0006	-0.5312	0.0000	-0.0040	0.2497	-0.1085	-0.8410	-0.3460	0.1301	0.4860	-2.6807	-0.3582	-0.9758	-0.8641	
0.1000	 4.94636216304065E-0004	-1.4229	-2.2398	1.0598	-1.4229	-1.1288	-2.0444	-0.2092	0.1843	-1.6710	-0.6714	0.3131	-0.8064	0.4821	0.5962	-0.6352	-0.2296	0.0730	0.4939	0.0174	-0.8728	-0.3330	-0.2522	0.2033	-2.9080	-0.0745	-0.7861	-1.4800	-2.2555	1.0703	-1.4168	-1.1308	-2.0555	-0.2227	0.1807	-1.6453	-0.6552	0.2887	-0.8236	0.5249	0.6351	-0.6597	-0.2550	0.1088	0.5356	0.0041	-0.8944	-0.3440	-0.2432	0.2217	-2.9161	-0.0717	-0.7946	-1.5045	
0.1500	 7.23666867517583E-0005	-1.1349	-2.8615	1.2997	-1.1349	-1.5360	-2.5644	-0.1838	0.3736	-1.5501	-0.7364	0.0988	-0.8631	1.0608	1.2497	-0.7767	-0.4988	0.2017	0.7998	0.1240	-0.9371	-0.3329	-0.6251	-0.0560	-3.1471	0.2133	-0.6085	-2.1338	-2.8645	1.3037	-1.1336	-1.5353	-2.5669	-0.1883	0.3722	-1.5407	-0.7308	0.0897	-0.8689	1.0761	1.2638	-0.7859	-0.5077	0.2169	0.8171	0.1182	-0.9456	-0.3193	-0.6186	-0.0456	-3.1493	0.2140	-0.6126	-2.1404	
0.2000	 3.81800314249639E-0005	-0.8476	-3.4753	1.5382	-0.8476	-1.9424	-3.0796	-0.1575	0.5621	-1.4326	-0.8043	-0.1134	-0.9181	1.6311	1.8938	-0.9160	-0.7665	0.3245	1.0997	0.2312	-0.9998	-0.3539	-1.0006	-0.3199	-3.3843	0.4995	-0.4305	-2.7796	-3.4664	1.5363	-0.8502	-1.9399	-3.0745	-0.1525	0.5648	-1.4402	-0.8097	-0.1062	-0.9115	1.6201	1.8827	-0.9098	-0.7584	0.3197	1.0932	0.2340	-0.9942	-0.3337	-0.9963	-0.3172	-3.3809	0.4992	-0.4294	-2.7697	
