Arquivo: c:\arq\medidas\BBA_1303_063127\BBA_AMP07B_V.dat
Data: 1303	 Hora:  0720
Comentário: 
NomeParametro	 ValorParametro
Nmedias	5
PausaCorretora	3000
PausaShunt	2000
PausaLeitura	500
NumCiclos	3
 NPassosCor	9
DeltaShunt	1.50
TetaIni	-0.20
TetaFim	0.20
I[mA]	  40.8
ACV01B	DeltaPos^2	AMP07B	AMP01B_0	AMP02A_0	AMP02B_0	AMP03A_0	AMP03B_0	AMP04A_0	AMP04B_0	AMP05A_0	AMP05B_0	AMP06A_0	AMP06B_0	AMP07A_0	AMP07B_0	AMP08A_0	AMP08B_0	AMP09A_0	AMP09B_0	AMP10A_0	AMP10B_0	AMP11A_0	AMU11A_0	AMU11B_0	AMP11B_0	AMP12A_0	AMP12B_0	AMP01A_0	AMP01B_1	AMP02A_1	AMP02B_1	AMP03A_1	AMP03B_1	AMP04A_1	AMP04B_1	AMP05A_1	AMP05B_1	AMP06A_1	AMP06B_1	AMP07A_1	AMP07B_1	AMP08A_1	AMP08B_1	AMP09A_1	AMP09B_1	AMP10A_1	AMP10B_1	AMP11A_1	AMU11A_1	AMU11B_1	AMP11B_1	AMP12A_1	AMP12B_1	AMP01A_1	
-0.2000	 6.38052504416460E-0003	-2.0303	-2.4837	-1.6681	-0.5604	-0.0957	3.6954	1.3666	-1.1438	-0.9780	1.5328	2.0925	0.8568	2.1866	-2.0303	-0.5948	-0.5633	0.1746	1.4339	0.9436	-0.6610	-0.0470	-0.8282	2.4794	3.5805	2.4060	2.0610	1.5282	-2.6135	-1.7506	-0.5679	-0.0566	3.7373	1.3641	-1.2267	-1.1075	1.6312	2.1801	0.9284	2.2499	-2.1535	-0.6875	-0.6186	0.1429	1.5416	0.9902	-0.7137	-0.0450	-0.9208	2.5034	3.6367	2.4666	2.1504	1.6323	
-0.1500	 4.00929364317099E-0003	-1.4792	-2.0033	-1.3045	-0.3365	0.0495	3.3397	1.1693	-0.9468	-0.5485	1.3898	1.8602	0.4758	1.7003	-1.4792	-0.2213	-0.4523	0.1220	1.1354	0.8753	-0.3558	-0.0426	-0.4068	2.2524	2.8896	2.0812	1.7472	1.2317	-2.1068	-1.3700	-0.3427	0.0795	3.3746	1.1661	-1.0121	-0.6510	1.4661	1.9291	0.5330	1.7518	-1.5773	-0.2951	-0.4954	0.0976	1.2204	0.9114	-0.3978	-0.0446	-0.4803	2.2719	2.9354	2.1297	1.8183	1.3139	
-0.1000	 2.02723156263865E-0003	-0.9231	-1.5173	-0.9382	-0.1127	0.1925	2.9799	0.9718	-0.7460	-0.1138	1.2421	1.6237	0.0919	1.2106	-0.9231	0.1541	-0.3408	0.0690	0.8348	0.8060	-0.0489	-0.0330	0.0172	2.0244	2.1881	1.7534	1.4299	0.9308	-1.5909	-0.9847	-0.1173	0.2137	3.0043	0.9710	-0.7923	-0.1866	1.2968	1.6728	0.1330	1.2480	-0.9928	0.1019	-0.3714	0.0519	0.8948	0.8316	-0.0791	-0.0569	-0.0349	2.0381	2.2214	1.7878	1.4804	0.9896	
-0.0500	 5.88650413352291E-0004	-0.3171	-0.9882	-0.5405	0.1283	0.3447	2.5892	0.7609	-0.5262	0.3597	1.0792	1.3654	-0.3243	0.6772	-0.3171	0.5613	-0.2200	0.0118	0.5085	0.7311	0.2837	-0.0331	0.4766	1.7766	1.4233	1.3965	1.0844	0.6035	-1.0284	-0.5655	0.1261	0.3566	2.6012	0.7594	-0.5514	0.3203	1.1089	1.3919	-0.3026	0.6969	-0.3550	0.5331	-0.2363	0.0031	0.5404	0.7443	0.2673	-0.0275	0.4484	1.7844	1.4402	1.4151	1.1118	0.6348	
0.0000	 9.30987557349563E-0006	0.2855	-0.4614	-0.1450	0.3664	0.4948	2.1982	0.5515	-0.3064	0.8298	0.9155	1.1070	-0.7389	0.1474	0.2855	0.9659	-0.0996	-0.0439	0.1833	0.6561	0.6133	-0.0268	0.9324	1.5303	0.6584	1.0411	0.7403	0.2785	-0.4668	-0.1481	0.3665	0.4969	2.1989	0.5511	-0.3098	0.8249	0.9195	1.1107	-0.7364	0.1491	0.2809	0.9623	-0.1015	-0.0448	0.1875	0.6577	0.6114	-0.0452	0.9289	1.5315	0.6594	1.0433	0.7436	0.2822	
0.0500	 3.38049702313623E-0004	0.8884	0.0640	0.2496	0.6041	0.6450	1.8052	0.3435	-0.0856	1.3013	0.7513	0.8472	-1.1534	-0.3840	0.8884	1.3702	0.0209	-0.1003	-0.1419	0.5822	0.9436	-0.0284	1.3861	1.2833	-0.1080	0.6842	0.3957	-0.0463	0.0934	0.2689	0.6069	0.6375	1.7935	0.3431	-0.0671	1.3307	0.7298	0.8272	-1.1705	-0.4002	0.9170	1.3915	0.0335	-0.0932	-0.1666	0.5716	0.9559	-0.0301	1.4077	1.2776	-0.1241	0.6703	0.3748	-0.0702	
0.1000	 1.58794376305217E-0003	1.4954	0.5916	0.6469	0.8445	0.7970	1.4065	0.1321	0.1368	1.7753	0.5846	0.5844	-1.5706	-0.9206	1.4954	1.7773	0.1425	-0.1574	-0.4693	0.5070	1.2765	-0.0465	1.8442	1.0332	-0.8839	0.3235	0.0488	-0.3729	0.6563	0.6883	0.8500	0.7799	1.3822	0.1316	0.1773	1.8389	0.5373	0.5412	-1.6073	-0.9547	1.5570	1.8234	0.1696	-0.1423	-0.5230	0.4843	1.3031	-0.0382	1.8902	1.0206	-0.9175	0.2922	0.0035	-0.4247	
0.1500	 3.65816735101380E-0003	2.0969	1.1146	1.0404	1.0843	0.9492	1.0075	-0.0787	0.3576	2.2442	0.4194	0.3236	-1.9852	-1.4535	2.0969	2.1811	0.2629	-0.2146	-0.7951	0.4330	1.6079	-0.0359	2.2977	0.7812	-1.6550	-0.0363	-0.2943	-0.6955	1.2126	1.1034	1.0921	0.9230	0.9712	-0.0784	0.4194	2.3406	0.3471	0.2578	-2.0403	-1.5049	2.1902	2.2509	0.3045	-0.1914	-0.8771	0.3983	1.6482	-0.0335	2.3676	0.7622	-1.7048	-0.0839	-0.3628	-0.7742	
0.2000	 6.38474000692560E-0003	2.6882	1.6287	1.4292	1.3231	1.1043	0.6099	-0.2896	0.5753	2.7055	0.2570	0.0656	-2.3947	-1.9810	2.6882	2.5792	0.3817	-0.2730	-1.1170	0.3598	1.9362	-0.0327	2.7444	0.5293	-2.4168	-0.3938	-0.6327	-1.0104	1.7577	1.5119	1.3330	1.0695	0.5616	-0.2899	0.6575	2.8326	0.1606	-0.0219	-2.4669	-2.0486	2.8103	2.6715	0.4375	-0.2412	-1.2258	0.3134	1.9892	-0.0037	2.8359	0.5040	-2.4816	-0.4568	-0.7234	-1.1150	
