Arquivo: c:\arq\medidas\BBA_1303_063127\BBA_AMP02B_V.dat
Data: 1303	 Hora:  0641
Comentário: 
NomeParametro	 ValorParametro
Nmedias	5
PausaCorretora	3000
PausaShunt	2000
PausaLeitura	500
NumCiclos	3
 NPassosCor	9
DeltaShunt	3.00
TetaIni	-0.20
TetaFim	0.20
I[mA]	 166.2
ACV09B	DeltaPos^2	AMP02B	AMP01B_0	AMP02A_0	AMP02B_0	AMP03A_0	AMP03B_0	AMP04A_0	AMP04B_0	AMP05A_0	AMP05B_0	AMP06A_0	AMP06B_0	AMP07A_0	AMP07B_0	AMP08A_0	AMP08B_0	AMP09A_0	AMP09B_0	AMP10A_0	AMP10B_0	AMP11A_0	AMU11A_0	AMU11B_0	AMP11B_0	AMP12A_0	AMP12B_0	AMP01A_0	AMP01B_1	AMP02A_1	AMP02B_1	AMP03A_1	AMP03B_1	AMP04A_1	AMP04B_1	AMP05A_1	AMP05B_1	AMP06A_1	AMP06B_1	AMP07A_1	AMP07B_1	AMP08A_1	AMP08B_1	AMP09A_1	AMP09B_1	AMP10A_1	AMP10B_1	AMP11A_1	AMU11A_1	AMU11B_1	AMP11B_1	AMP12A_1	AMP12B_1	AMP01A_1	
-0.2000	 1.43052924039444E-0003	1.6270	0.7615	1.0898	1.6270	1.8214	0.4556	-0.7029	-0.0585	1.9387	1.1488	0.6808	-2.2307	-2.0937	2.1813	2.4574	0.8666	0.5719	-1.7014	-0.6255	0.0871	-0.6708	1.0173	2.5381	-3.0119	1.3689	-0.2805	-1.5265	0.8091	1.1314	1.6647	1.8803	0.4140	-0.7450	-0.0818	1.9271	1.1935	0.7005	-2.2532	-2.1396	2.1971	2.4838	0.9087	0.6214	-1.7617	-0.6647	0.0799	-0.6773	1.0331	2.5620	-3.1083	1.3688	-0.3186	-1.5868	
-0.1500	 8.94659570779798E-0004	1.3273	0.5471	0.8414	1.3273	1.4779	0.8473	-0.4047	-0.0750	1.7369	1.0401	0.7356	-1.9111	-1.5964	1.7776	2.1299	0.6355	0.4038	-1.2785	-0.3198	0.2508	-0.6744	1.0415	2.2681	-2.1774	1.2432	-0.0894	-1.1524	0.5849	0.8743	1.3574	1.5246	0.8140	-0.4375	-0.0929	1.7281	1.0748	0.7510	-1.9294	-1.6328	1.7912	2.1512	0.6687	0.4421	-1.3263	-0.3507	0.2453	-0.6656	1.0544	2.2865	-2.2547	1.2429	-0.1199	-1.1999	
-0.1000	 4.58263809986874E-0004	1.0193	0.3247	0.5847	1.0193	1.1259	1.2469	-0.0987	-0.0914	1.5304	0.9280	0.7911	-1.5829	-1.0846	1.3636	1.7935	0.3968	0.2293	-0.8419	-0.0061	0.4167	-0.6336	1.0640	1.9907	-1.3108	1.1158	0.1081	-0.7654	0.3522	0.6090	1.0411	1.1589	1.2228	-0.1221	-0.1038	1.5254	0.9521	0.8013	-1.5964	-1.1106	1.3737	1.8089	0.4205	0.2560	-0.8761	-0.0281	0.4133	-0.6725	1.0742	2.0034	-1.3669	1.1147	0.0861	-0.8002	
-0.0500	 1.60397546033446E-0004	0.7054	0.0968	0.3228	0.7054	0.7684	1.6524	0.2128	-0.1072	1.3215	0.8128	0.8465	-1.2490	-0.5633	0.9429	1.4499	0.1527	0.0494	-0.3955	0.3137	0.5847	-0.6550	1.0855	1.7081	-0.4237	0.9867	0.3103	-0.3700	0.1138	0.3378	0.7185	0.7880	1.6377	0.1994	-0.1139	1.3196	0.8261	0.8519	-1.2574	-0.5781	0.9493	1.4592	0.1664	0.0642	-0.4156	0.3011	0.5835	-0.6786	1.0928	1.7150	-0.4570	0.9853	0.2965	-0.3911	
0.0000	 1.53448948534642E-0005	0.3863	-0.1347	0.0564	0.3863	0.4035	2.0617	0.5292	-0.1224	1.1106	0.6943	0.9018	-0.9106	-0.0340	0.5154	1.1012	-0.0957	-0.1337	0.0574	0.6379	0.7548	-0.6858	1.1066	1.4206	0.4773	0.8562	0.5153	0.0309	-0.1287	0.0619	0.3907	0.4091	2.0565	0.5256	-0.1232	1.1123	0.6964	0.9019	-0.9138	-0.0379	0.5183	1.1046	-0.0920	-0.1317	0.0518	0.6349	0.7557	-0.6913	1.1106	1.4216	0.4673	0.8539	0.5101	0.0240	
0.0500	 3.85555175612514E-0005	0.0563	-0.3753	-0.2185	0.0563	0.0264	2.4818	0.8559	-0.1368	0.8948	0.5703	0.9566	-0.5614	0.5101	0.0757	0.7409	-0.3525	-0.3243	0.5258	0.9725	0.9301	-0.6471	1.1277	1.1232	1.4037	0.7215	0.7265	0.4448	-0.3807	-0.2232	0.0513	0.0174	2.4865	0.8626	-0.1313	0.8997	0.5609	0.9518	-0.5591	0.5179	0.0745	0.7379	-0.3595	-0.3352	0.5356	0.9799	0.9337	-0.6820	1.1284	1.1176	1.4185	0.7185	0.7306	0.4530	
0.1000	 2.43409547213933E-0004	-0.2767	-0.6183	-0.4960	-0.2767	-0.3546	2.9021	1.1855	-0.1497	0.6788	0.4435	1.0113	-0.2097	1.0583	-0.3679	0.3781	-0.6111	-0.5165	0.9975	1.3100	1.1078	-0.6732	1.1506	0.8223	2.3294	0.5857	0.9404	0.8635	-0.6348	-0.5106	-0.2912	-0.3785	2.9160	1.2029	-0.1379	0.6873	0.4220	1.0007	-0.2019	1.0779	-0.3725	0.3686	-0.6287	-0.5406	1.0225	1.3279	1.1138	-0.6688	1.1484	0.8100	2.3682	0.5816	0.9532	0.8865	
0.1500	 6.23285036244716E-0004	-0.6114	-0.8612	-0.7739	-0.6114	-0.7376	3.3205	1.5163	-0.1608	0.4634	0.3138	1.0644	0.1424	1.6064	-0.8120	0.0141	-0.8706	-0.7094	1.4698	1.6483	1.2875	-0.6675	1.1748	0.5179	3.2447	0.4471	1.1542	1.2827	-0.8891	-0.7990	-0.6353	-0.7759	3.3445	1.5440	-0.1430	0.4758	0.2805	1.0490	0.1556	1.6375	-0.8201	-0.0016	-0.8987	-0.7463	1.5099	1.6760	1.2957	-0.6669	1.1693	0.4994	3.3066	0.4422	1.1761	1.3205	
0.2000	 1.16000290696109E-0003	-0.9458	-1.1027	-1.0509	-0.9458	-1.1209	3.7355	1.8468	-0.1705	0.2500	0.1822	1.1160	0.4934	2.1510	-1.2545	-0.3490	-1.1289	-0.9007	1.9393	1.9849	1.4676	-0.6494	1.2008	0.2118	4.1403	0.3065	1.3662	1.6999	-1.1416	-1.0859	-0.9786	-1.1731	3.7680	1.8846	-0.1462	0.2667	0.1372	1.0947	0.5116	2.1926	-1.2660	-0.3709	-1.1674	-0.9505	1.9931	2.0226	1.4780	-0.6843	1.1925	0.1867	4.2229	0.3009	1.3973	1.7519	
