Arquivo: c:\arq\medidas\BBA_1303_063127\BBA_AMP01A_V.dat
Data: 1303	 Hora:  0811
Comentário: 
NomeParametro	 ValorParametro
Nmedias	5
PausaCorretora	3000
PausaShunt	2000
PausaLeitura	500
NumCiclos	3
 NPassosCor	9
DeltaShunt	1.50
TetaIni	-0.20
TetaFim	0.20
I[mA]	  18.3
ACV07A	DeltaPos^2	AMP01A	AMP01B_0	AMP02A_0	AMP02B_0	AMP03A_0	AMP03B_0	AMP04A_0	AMP04B_0	AMP05A_0	AMP05B_0	AMP06A_0	AMP06B_0	AMP07A_0	AMP07B_0	AMP08A_0	AMP08B_0	AMP09A_0	AMP09B_0	AMP10A_0	AMP10B_0	AMP11A_0	AMU11A_0	AMU11B_0	AMP11B_0	AMP12A_0	AMP12B_0	AMP01A_0	AMP01B_1	AMP02A_1	AMP02B_1	AMP03A_1	AMP03B_1	AMP04A_1	AMP04B_1	AMP05A_1	AMP05B_1	AMP06A_1	AMP06B_1	AMP07A_1	AMP07B_1	AMP08A_1	AMP08B_1	AMP09A_1	AMP09B_1	AMP10A_1	AMP10B_1	AMP11A_1	AMU11A_1	AMU11B_1	AMP11B_1	AMP12A_1	AMP12B_1	AMP01A_1	
-0.2000	 7.13963778203539E-0003	-2.0986	1.8084	1.6279	1.3913	1.0839	0.4629	-0.3101	0.7368	2.9878	0.0702	-0.1039	-2.5835	-2.3019	1.8497	2.4554	1.4002	1.4706	-2.2693	-0.7407	0.8764	0.0072	2.1003	1.9546	-2.6621	0.5758	-0.9595	-2.0986	1.8933	1.7095	1.4709	1.1657	0.3506	-0.3869	0.7581	3.0666	0.0791	-0.1359	-2.6803	-2.4450	1.9791	2.5534	1.4589	1.5060	-2.3846	-0.7901	0.9312	-0.0105	2.1993	1.9329	-2.8915	0.5109	-1.0575	-2.2189	
-0.1500	 4.52132690751794E-0003	-1.5542	1.2931	1.2266	1.1666	0.9579	0.8536	-0.1149	0.4914	2.4955	0.2735	0.1807	-2.1675	-1.7493	1.5058	2.1226	1.0550	1.1176	-1.7099	-0.4173	0.8204	-0.0184	1.8414	1.8558	-1.9278	0.6813	-0.5708	-1.5542	1.3606	1.2919	1.2295	1.0233	0.7658	-0.1763	0.5082	2.5584	0.2802	0.1556	-2.2448	-1.8640	1.6088	2.2006	1.1017	1.1461	-1.8019	-0.4569	0.8631	-0.0035	1.9200	1.8393	-2.1115	0.6305	-0.6487	-1.6506	
-0.1000	 2.32192486961768E-0003	-0.9906	0.7597	0.8120	0.9330	0.8277	1.2571	0.0864	0.2412	1.9856	0.4783	0.4718	-1.7365	-1.1753	1.1485	1.7775	0.6984	0.7537	-1.1297	-0.0841	0.7628	-0.0062	1.5746	1.7539	-1.1610	0.7900	-0.1702	-0.9906	0.8088	0.8588	0.9782	0.8743	1.1944	0.0430	0.2535	2.0311	0.4833	0.4538	-1.7919	-1.2570	1.2228	1.8333	0.7322	0.7743	-1.1960	-0.1124	0.7932	0.0041	1.6311	1.7429	-1.2927	0.7538	-0.2258	-1.0598	
-0.0500	 7.72909449225990E-0004	-0.4124	0.2163	0.3888	0.6933	0.6918	1.6677	0.2943	-0.0108	1.4658	0.6836	0.7660	-1.2960	-0.5883	0.7820	1.4231	0.3339	0.3837	-0.5351	0.2560	0.7053	0.0015	1.3034	1.6489	-0.3721	0.8991	0.2382	-0.4124	0.2444	0.4160	0.7192	0.7193	1.6317	0.2688	-0.0043	1.4917	0.6868	0.7562	-1.3278	-0.6351	0.8248	1.4557	0.3537	0.3957	-0.5734	0.2396	0.7229	-0.0007	1.3363	1.6435	-0.4486	0.8785	0.2062	-0.4524	
0.0000	 3.95115832589406E-0005	0.1732	-0.3349	-0.0414	0.4489	0.5520	2.0828	0.5056	-0.2657	0.9378	0.8873	1.0623	-0.8483	0.0090	0.4095	1.0631	-0.0369	0.0064	0.0698	0.6012	0.6486	0.0126	1.0283	1.5407	0.4308	1.0086	0.6517	0.1732	-0.3291	-0.0353	0.4549	0.5590	2.0754	0.5001	-0.2640	0.9436	0.8884	1.0599	-0.8554	-0.0006	0.4192	1.0711	-0.0322	0.0088	0.0609	0.5975	0.6527	-0.0204	1.0372	1.5406	0.4133	1.0041	0.6446	0.1646	
0.0500	 2.31706229895593E-0004	0.7616	-0.8889	-0.4726	0.2033	0.4104	2.4968	0.7186	-0.5194	0.4098	1.0901	1.3570	-0.3994	0.6065	0.0383	0.7020	-0.4096	-0.3736	0.6773	0.9485	0.5944	0.0116	0.7536	1.4297	1.2349	1.1163	1.0651	0.7616	-0.9053	-0.4874	0.1896	0.3967	2.5177	0.7318	-0.5228	0.3957	1.0893	1.3628	-0.3820	0.6335	0.0150	0.6843	-0.4203	-0.3805	0.6980	0.9581	0.5854	-0.0306	0.7382	1.4350	1.2759	1.1271	1.0826	0.7841	
0.1000	 1.33647383487618E-0003	1.3465	-1.4380	-0.9015	-0.0421	0.2688	2.9062	0.9310	-0.7704	-0.1157	1.2906	1.6490	0.0465	1.2000	-0.3288	0.3436	-0.7814	-0.7548	1.2819	1.2961	0.5420	0.0134	0.4817	1.3170	2.0292	1.2217	1.4752	1.3465	-1.4769	-0.9372	-0.0760	0.2345	2.9543	0.9639	-0.7791	-0.1497	1.2876	1.6622	0.0881	1.2634	-0.3846	0.3013	-0.8068	-0.7713	1.3325	1.3178	0.5198	-0.0065	0.4420	1.3268	2.1281	1.2477	1.5170	1.4006	
0.1500	 3.22468839347454E-0003	1.9252	-1.9805	-1.3258	-0.2854	0.1281	3.3090	1.1416	-1.0181	-0.6349	1.4875	1.9360	0.4867	1.7848	-0.6880	-0.0096	-1.1516	-1.1358	1.8800	1.6415	0.4929	0.0041	0.2146	1.2008	2.8081	1.3227	1.8801	1.9252	-2.0399	-1.3809	-0.3389	0.0732	3.3833	1.1934	-1.0306	-0.6876	1.4810	1.9558	0.5516	1.8827	-0.7743	-0.0754	-1.1916	-1.1621	1.9588	1.6754	0.4586	-0.0170	0.1519	1.2157	2.9606	1.3631	1.9455	2.0083	
0.2000	 5.67826798833999E-0003	2.4907	-2.5102	-1.7414	-0.5243	-0.0102	3.7009	1.3486	-1.2602	-1.1431	1.6806	2.2168	0.9170	2.3539	-1.0344	-0.3541	-1.5171	-1.5143	2.4660	1.9827	0.4484	-0.0029	-0.0448	1.0827	3.5613	1.4179	2.2758	2.4907	-2.5881	-1.8142	-0.5958	-0.0842	3.7993	1.4183	-1.2764	-1.2120	1.6712	2.2425	1.0029	2.4833	-1.1492	-0.4418	-1.5702	-1.5490	2.5701	2.0282	0.4023	-0.0031	-0.1294	1.1025	3.7612	1.4725	2.3623	2.6000	
