Arquivo: c:\arq\medidas\BBA_1303_063127\BBA_AMU11A_V.dat
Data: 1303	 Hora:  0751
Comentário: 
NomeParametro	 ValorParametro
Nmedias	5
PausaCorretora	3000
PausaShunt	2000
PausaLeitura	500
NumCiclos	3
 NPassosCor	9
DeltaShunt	1.50
TetaIni	-0.20
TetaFim	0.20
I[mA]	  25.6
ACV11A	DeltaPos^2	AMU11A	AMP01B_0	AMP02A_0	AMP02B_0	AMP03A_0	AMP03B_0	AMP04A_0	AMP04B_0	AMP05A_0	AMP05B_0	AMP06A_0	AMP06B_0	AMP07A_0	AMP07B_0	AMP08A_0	AMP08B_0	AMP09A_0	AMP09B_0	AMP10A_0	AMP10B_0	AMP11A_0	AMU11A_0	AMU11B_0	AMP11B_0	AMP12A_0	AMP12B_0	AMP01A_0	AMP01B_1	AMP02A_1	AMP02B_1	AMP03A_1	AMP03B_1	AMP04A_1	AMP04B_1	AMP05A_1	AMP05B_1	AMP06A_1	AMP06B_1	AMP07A_1	AMP07B_1	AMP08A_1	AMP08B_1	AMP09A_1	AMP09B_1	AMP10A_1	AMP10B_1	AMP11A_1	AMU11A_1	AMU11B_1	AMP11B_1	AMP12A_1	AMP12B_1	AMP01A_1	
-0.2000	 5.86758257894445E-0003	-0.7902	-2.6590	-1.4392	0.5012	1.5164	2.6537	0.2369	-1.8349	-1.3974	2.8249	2.6899	0.3063	0.9096	-1.6591	0.0547	0.5567	1.5863	-0.1825	-0.1501	-0.9439	-0.0240	-0.7902	2.2219	0.9814	2.2854	2.2243	1.8665	-2.7854	-1.5155	0.5043	1.5691	2.6845	0.2230	-1.9205	-1.5245	2.9295	2.7785	0.3684	0.9580	-1.7719	0.0001	0.5910	1.6760	-0.1994	-0.1933	-1.0326	-0.0110	-0.8879	2.2580	1.0110	2.3540	2.3100	1.9605	
-0.1500	 3.63221096107540E-0003	-0.3636	-2.1164	-1.1139	0.4796	1.2790	2.5286	0.3058	-1.4639	-0.8495	2.3657	2.3063	0.0428	0.7118	-1.1765	0.2847	0.4035	1.1977	-0.1022	0.0406	-0.5637	-0.0332	-0.3636	2.0549	0.8731	1.9827	1.8580	1.4719	-2.2162	-1.1739	0.4819	1.3201	2.5534	0.2959	-1.5308	-0.9493	2.4478	2.3761	0.0920	0.7508	-1.2662	0.2411	0.4295	1.2668	-0.1139	0.0075	-0.6334	-0.0157	-0.4408	2.0837	0.8972	2.0370	1.9252	1.5458	
-0.1000	 1.76181288944582E-0003	0.0788	-1.5515	-0.7765	0.4586	1.0347	2.3977	0.3757	-1.0798	-0.2806	1.8894	1.9081	-0.2323	0.5030	-0.6737	0.5254	0.2491	0.7980	-0.0247	0.2345	-0.1701	-0.0112	0.0788	1.8798	0.7577	1.6667	1.4770	1.0635	-1.6211	-0.8184	0.4601	1.0631	2.4152	0.3688	-1.1264	-0.3501	1.9464	1.9565	-0.1976	0.5309	-0.7366	0.4947	0.2667	0.8460	-0.0318	0.2121	-0.2185	0.0002	0.0253	1.9003	0.7745	1.7047	1.5241	1.1146	
-0.0500	 4.74481855452851E-0004	0.5324	-0.9719	-0.4310	0.4385	0.7860	2.2616	0.4454	-0.6865	0.3013	1.4021	1.4991	-0.5156	0.2862	-0.1567	0.7733	0.0944	0.3931	0.0493	0.4295	0.2323	-0.0151	0.5324	1.6989	0.6372	1.3413	1.0865	0.6450	-1.0082	-0.4528	0.4392	0.8005	2.2713	0.4419	-0.7104	0.2653	1.4318	1.5246	-0.4974	0.3010	-0.1892	0.7572	0.1032	0.4176	0.0460	0.4185	0.2071	-0.0112	0.5045	1.7092	0.6461	1.3608	1.1109	0.6716	
0.0000	 7.48170418046092E-0007	0.9928	-0.3815	-0.0801	0.4188	0.5344	2.1225	0.5159	-0.2876	0.8897	0.9076	1.0844	-0.8044	0.0632	0.3700	1.0269	-0.0609	-0.0157	0.1208	0.6253	0.6406	-0.0247	0.9928	1.5142	0.5126	1.0089	0.6886	0.2204	-0.3828	-0.0808	0.4190	0.5352	2.1229	0.5155	-0.2889	0.8885	0.9084	1.0851	-0.8038	0.0641	0.3680	1.0261	-0.0607	-0.0150	0.1208	0.6250	0.6397	-0.0115	0.9920	1.5140	0.5125	1.0099	0.6893	0.2214	
0.0500	 4.21738112587370E-0004	1.4547	0.2112	0.2738	0.4003	0.2828	1.9803	0.5846	0.1135	1.4810	0.4105	0.6650	-1.0957	-0.1633	0.8990	1.2826	-0.2154	-0.4254	0.1899	0.8214	1.0521	-0.0296	1.4547	1.3277	0.3839	0.6734	0.2870	-0.2070	0.2452	0.2944	0.3996	0.2690	1.9716	0.5880	0.1361	1.5147	0.3822	0.6413	-1.1129	-0.1769	0.9296	1.2975	-0.2239	-0.4482	0.1931	0.8323	1.0756	-0.0032	1.4813	1.3174	0.3752	0.6545	0.2637	-0.2320	
0.1000	 1.73403958475463E-0003	1.9164	0.8039	0.6278	0.3830	0.0315	1.8360	0.6531	0.5135	2.0696	-0.0876	0.2464	-1.3869	-0.3908	1.4277	1.5382	-0.3695	-0.8343	0.2578	1.0166	1.4618	0.0032	1.9164	1.1422	0.2528	0.3375	-0.1153	-0.6369	0.8733	0.6695	0.3820	0.0039	1.8184	0.6598	0.5598	2.1375	-0.1451	0.1978	-1.4215	-0.4187	1.4899	1.5685	-0.3864	-0.8807	0.2645	1.0383	1.5096	-0.0077	1.9697	1.1216	0.2347	0.2991	-0.1625	-0.6877	
0.1500	 3.81244572396848E-0003	2.3727	1.3914	0.9800	0.3667	-0.2171	1.6915	0.7206	0.9109	2.6490	-0.5825	-0.1699	-1.6755	-0.6167	1.9502	1.7911	-0.5228	-1.2403	0.3260	1.2104	1.8675	-0.0194	2.3727	0.9579	0.1202	0.0040	-0.5151	-1.0640	1.4943	1.0420	0.3651	-0.2581	1.6651	0.7305	0.9794	2.7491	-0.6674	-0.2421	-1.7270	-0.6571	2.0419	1.8365	-0.5481	-1.3096	0.3359	1.2430	1.9388	-0.0143	2.4513	0.9274	0.0932	-0.0529	-0.5851	-1.1399	
0.2000	 6.43031795034344E-0003	2.8181	1.9674	1.3266	0.3507	-0.4612	1.5482	0.7865	1.3011	3.2135	-1.0690	-0.5799	-1.9579	-0.8356	2.4602	2.0384	-0.6752	-1.6400	0.3958	1.4022	2.2656	0.0148	2.8181	0.7782	-0.0110	-0.3228	-0.9090	-1.4842	2.1007	1.4074	0.3490	-0.5148	1.5134	0.7997	1.3903	3.3430	-1.1792	-0.6741	-2.0242	-0.8889	2.5784	2.0971	-0.7087	-1.7309	0.4089	1.4449	2.3576	-0.0365	2.9195	0.7386	-0.0466	-0.3967	-1.0004	-1.5834	
