Arquivo: c:\arq\medidas\BBA_1303_063127\BBA_AMU11B_V.dat
Data: 1303	 Hora:  0755
Comentário: 
NomeParametro	 ValorParametro
Nmedias	5
PausaCorretora	3000
PausaShunt	2000
PausaLeitura	500
NumCiclos	3
 NPassosCor	9
DeltaShunt	1.50
TetaIni	-0.20
TetaFim	0.20
I[mA]	  24.5
ACV11B	DeltaPos^2	AMU11B	AMP01B_0	AMP02A_0	AMP02B_0	AMP03A_0	AMP03B_0	AMP04A_0	AMP04B_0	AMP05A_0	AMP05B_0	AMP06A_0	AMP06B_0	AMP07A_0	AMP07B_0	AMP08A_0	AMP08B_0	AMP09A_0	AMP09B_0	AMP10A_0	AMP10B_0	AMP11A_0	AMU11A_0	AMU11B_0	AMP11B_0	AMP12A_0	AMP12B_0	AMP01A_0	AMP01B_1	AMP02A_1	AMP02B_1	AMP03A_1	AMP03B_1	AMP04A_1	AMP04B_1	AMP05A_1	AMP05B_1	AMP06A_1	AMP06B_1	AMP07A_1	AMP07B_1	AMP08A_1	AMP08B_1	AMP09A_1	AMP09B_1	AMP10A_1	AMP10B_1	AMP11A_1	AMU11A_1	AMU11B_1	AMP11B_1	AMP12A_1	AMP12B_1	AMP01A_1	
-0.2000	 4.45066422173348E-0003	-0.1108	1.3637	0.6779	-0.3711	-1.2561	2.4942	1.4935	1.2272	2.6888	-1.2897	-0.4145	-1.1646	0.3928	1.4595	1.2246	-1.2504	-2.0619	1.4502	1.9023	1.9050	-0.0053	1.8361	-0.1108	2.0381	-0.5714	-0.3893	-0.5127	1.4510	0.7140	-0.4141	-1.3507	2.5177	1.5459	1.3033	2.7784	-1.4026	-0.4898	-1.1787	0.4162	1.5110	1.2309	-1.3135	-2.1687	1.5243	1.9695	1.9672	-0.0174	1.8760	-0.1941	2.1238	-0.6520	-0.4417	-0.5466	
-0.1500	 2.73099051717689E-0003	0.2723	0.9625	0.5053	-0.1836	-0.8373	2.4033	1.2641	0.8768	2.2780	-0.7791	-0.0669	-1.0870	0.3073	1.2139	1.1847	-0.9707	-1.5868	1.1340	1.6036	1.6154	-0.0199	1.6480	0.2723	1.6750	-0.2025	-0.1414	-0.3465	1.0307	0.5333	-0.2174	-0.9114	2.4217	1.3055	0.9366	2.3479	-0.8673	-0.1260	-1.0984	0.3255	1.2545	1.1898	-1.0200	-1.6701	1.1917	1.6557	1.6646	-0.0120	1.6798	0.2069	1.7425	-0.2662	-0.1825	-0.3729	
-0.1000	 1.34795060034873E-0003	0.6675	0.5472	0.3275	0.0101	-0.4039	2.3089	1.0261	0.5147	1.8510	-0.2510	0.2912	-1.0053	0.2215	0.9594	1.1417	-0.6824	-1.0948	0.8094	1.2949	1.3149	-0.0105	1.4518	0.6675	1.2982	0.1776	0.1137	-0.1757	0.5955	0.3472	-0.0137	-0.4558	2.3215	1.0551	0.5572	1.9003	-0.3132	0.2497	-1.0136	0.2339	0.9874	1.1455	-0.7172	-1.1534	0.8493	1.3316	1.3492	-0.0124	1.4738	0.6217	1.3454	0.1328	0.0847	-0.1942	
-0.0500	 4.21839242683560E-0004	1.0682	0.1254	0.1468	0.2075	0.0380	2.2123	0.7831	0.1457	1.4142	0.2864	0.6553	-0.9218	0.1349	0.6977	1.0979	-0.3897	-0.5922	0.4800	0.9804	1.0075	-0.0157	1.2508	1.0682	0.9129	0.5646	0.3733	-0.0026	0.1519	0.1578	0.1943	0.0090	2.2195	0.7993	0.1692	1.4422	0.2516	0.6324	-0.9264	0.1419	0.7146	1.1000	-0.4090	-0.6249	0.5020	1.0009	1.0268	-0.0141	1.2633	1.0427	0.9393	0.5394	0.3569	-0.0130	
0.0000	 1.52586876503732E-0005	1.4718	-0.3018	-0.0367	0.4059	0.4844	2.1150	0.5388	-0.2278	0.9716	0.8284	1.0236	-0.8366	0.0484	0.4338	1.0530	-0.0939	-0.0839	0.1477	0.6624	0.6961	-0.0245	1.0477	1.4718	0.5238	0.9553	0.6359	0.1720	-0.2968	-0.0347	0.4033	0.4787	2.1165	0.5416	-0.2235	0.9767	0.8217	1.0192	-0.8374	0.0499	0.4362	1.0532	-0.0976	-0.0904	0.1521	0.6664	0.6998	-0.0218	1.0499	1.4668	0.5289	0.9503	0.6328	0.1700	
0.0500	 1.64997101040510E-0004	1.8756	-0.7324	-0.2213	0.6050	0.9313	2.0172	0.2930	-0.6023	0.5264	1.3719	1.3927	-0.7504	-0.0376	0.1674	1.0067	0.2029	0.4255	-0.1863	0.3435	0.3836	0.0005	0.8427	1.8756	0.1340	1.3464	0.9005	0.3490	-0.7492	-0.2282	0.6133	0.9494	2.0128	0.2827	-0.6170	0.5090	1.3936	1.4074	-0.7475	-0.0415	0.1574	1.0052	0.2150	0.4461	-0.2000	0.3307	0.3713	-0.0168	0.8348	1.8915	0.1170	1.3622	0.9105	0.3553	
0.1000	 8.46985770695720E-0004	2.2764	-1.1630	-0.4066	0.8035	1.3761	1.9196	0.0470	-0.9764	0.0793	1.9129	1.7606	-0.6646	-0.1243	-0.0984	0.9610	0.4999	0.9351	-0.5207	0.0243	0.0716	0.0025	0.6386	2.2764	-0.2556	1.7358	1.1644	0.5270	-1.2009	-0.4225	0.8224	1.4167	1.9099	0.0240	-1.0098	0.0394	1.9617	1.7939	-0.6577	-0.1333	-0.1211	0.9579	0.5272	0.9816	-0.5524	-0.0050	0.0438	-0.0018	0.6211	2.3123	-0.2930	1.7713	1.1877	0.5418	
0.1500	 1.99975740584715E-0003	2.6714	-1.5913	-0.5918	1.0000	1.8149	1.8237	-0.1956	-1.3480	-0.3662	2.4482	2.1257	-0.5794	-0.2110	-0.3622	0.9160	0.7944	1.4408	-0.8543	-0.2931	-0.2367	-0.0046	0.4373	2.6714	-0.6406	2.1216	1.4276	0.7057	-1.6500	-0.6165	1.0287	1.8774	1.8080	-0.2312	-1.3994	-0.4272	2.5229	2.1762	-0.5691	-0.2251	-0.3971	0.9120	0.8369	1.5124	-0.9033	-0.3386	-0.2793	0.0101	0.4109	2.7265	-0.6985	2.1754	1.4631	0.7289	
0.2000	 3.48901467239736E-0003	3.0593	-2.0147	-0.7763	1.1935	2.2473	1.7300	-0.4362	-1.7145	-0.8065	2.9733	2.4853	-0.4956	-0.2981	-0.6226	0.8729	1.0869	1.9398	-1.1853	-0.6086	-0.5404	-0.0318	0.2409	3.0593	-1.0186	2.4998	1.6884	0.8848	-2.0927	-0.8092	1.2315	2.3298	1.7095	-0.4821	-1.7827	-0.8873	3.0716	2.5517	-0.4825	-0.3176	-0.6684	0.8674	1.1434	2.0342	-1.2513	-0.6692	-0.5957	-0.0015	0.2065	3.1312	-1.0951	2.5710	1.7358	0.9159	
