Arquivo: c:\arq\medidas\BBA_1303_063127\BBA_AMP02A_V.dat
Data: 1303	 Hora:  0637
Comentário: 
NomeParametro	 ValorParametro
Nmedias	5
PausaCorretora	3000
PausaShunt	2000
PausaLeitura	500
NumCiclos	3
 NPassosCor	9
DeltaShunt	3.00
TetaIni	-0.20
TetaFim	0.20
I[mA]	 166.8
ACV07B	DeltaPos^2	AMP02A	AMP01B_0	AMP02A_0	AMP02B_0	AMP03A_0	AMP03B_0	AMP04A_0	AMP04B_0	AMP05A_0	AMP05B_0	AMP06A_0	AMP06B_0	AMP07A_0	AMP07B_0	AMP08A_0	AMP08B_0	AMP09A_0	AMP09B_0	AMP10A_0	AMP10B_0	AMP11A_0	AMU11A_0	AMU11B_0	AMP11B_0	AMP12A_0	AMP12B_0	AMP01A_0	AMP01B_1	AMP02A_1	AMP02B_1	AMP03A_1	AMP03B_1	AMP04A_1	AMP04B_1	AMP05A_1	AMP05B_1	AMP06A_1	AMP06B_1	AMP07A_1	AMP07B_1	AMP08A_1	AMP08B_1	AMP09A_1	AMP09B_1	AMP10A_1	AMP10B_1	AMP11A_1	AMU11A_1	AMU11B_1	AMP11B_1	AMP12A_1	AMP12B_1	AMP01A_1	
-0.2000	 5.92370543238699E-0007	-1.3943	-2.3503	-1.3943	0.1544	0.9159	2.9052	0.5852	-1.4882	-1.0672	2.2763	2.3582	0.3238	1.1087	-1.5937	-0.4625	-1.0761	-0.7430	1.9249	1.4669	-0.0915	-0.6783	-0.4328	1.7685	1.7259	1.8618	2.0614	1.8505	-2.3490	-1.3936	0.1547	0.9158	2.9042	0.5850	-1.4876	-1.0662	2.2760	2.3579	0.3228	1.1074	-1.5926	-0.4616	-1.0757	-0.7431	1.9243	1.4666	-0.0908	-0.6784	-0.4316	1.7679	1.7247	1.8609	2.0606	1.8496	
-0.1500	 7.07064900622184E-0008	-1.0577	-1.8385	-1.0577	0.2082	0.7961	2.7106	0.5724	-1.1716	-0.5612	1.9095	2.0217	0.0387	0.8452	-1.1062	-0.0987	-0.8467	-0.5986	1.4910	1.2722	0.1026	-0.6738	-0.0768	1.6908	1.4366	1.6313	1.7040	1.4281	-1.8385	-1.0579	0.2081	0.7961	2.7105	0.5728	-1.1717	-0.5614	1.9095	2.0218	0.0388	0.8459	-1.1065	-0.0991	-0.8468	-0.5987	1.4910	1.2723	0.1027	-0.6916	-0.0770	1.6914	1.4372	1.6316	1.7043	1.4283	
-0.1000	 9.20081631835138E-0008	-0.7070	-1.3035	-0.7070	0.2647	0.6726	2.5071	0.5588	-0.8421	-0.0337	1.5276	1.6698	-0.2599	0.5692	-0.5953	0.2795	-0.6088	-0.4501	1.0382	1.0703	0.3057	-0.6695	0.2935	1.6091	1.1335	1.3908	1.3310	0.9874	-1.3038	-0.7074	0.2645	0.6723	2.5075	0.5591	-0.8423	-0.0340	1.5275	1.6699	-0.2596	0.5696	-0.5960	0.2794	-0.6088	-0.4500	1.0384	1.0707	0.3058	-0.6903	0.2932	1.6091	1.1343	1.3908	1.3313	0.9880	
-0.0500	 5.61548826566470E-0008	-0.3538	-0.7640	-0.3538	0.3225	0.5497	2.3002	0.5440	-0.5106	0.4963	1.1440	1.3160	-0.5616	0.2889	-0.0798	0.6608	-0.3703	-0.3018	0.5825	0.8680	0.5102	-0.6922	0.6667	1.5255	0.8252	1.1476	0.9546	0.5436	-0.7642	-0.3540	0.3222	0.5493	2.3005	0.5441	-0.5104	0.4962	1.1439	1.3159	-0.5613	0.2894	-0.0801	0.6605	-0.3704	-0.3019	0.5829	0.8681	0.5103	-0.6831	0.6667	1.5254	0.8257	1.1476	0.9549	0.5441	
0.0000	 2.80245730934338E-0008	0.0028	-0.2191	0.0028	0.3814	0.4264	2.0898	0.5283	-0.1762	1.0289	0.7575	0.9581	-0.8665	0.0044	0.4403	1.0456	-0.1302	-0.1533	0.1237	0.6644	0.7173	-0.6894	1.0430	1.4402	0.5127	0.9011	0.5744	0.0963	-0.2188	0.0027	0.3814	0.4265	2.0900	0.5279	-0.1763	1.0285	0.7576	0.9580	-0.8665	0.0043	0.4403	1.0457	-0.1302	-0.1531	0.1235	0.6641	0.7173	-0.6694	1.0428	1.4401	0.5124	0.9012	0.5743	0.0961	
0.0500	 3.89309793211553E-0008	0.3666	0.3350	0.3666	0.4423	0.3020	1.8739	0.5110	0.1640	1.5705	0.3641	0.5930	-1.1773	-0.2875	0.9709	1.4373	0.1148	-0.0023	-0.3452	0.4572	0.9289	-0.6500	1.4250	1.3533	0.1911	0.6487	0.1858	-0.3600	0.3346	0.3665	0.4423	0.3021	1.8745	0.5109	0.1639	1.5703	0.3642	0.5932	-1.1773	-0.2874	0.9711	1.4374	0.1148	-0.0022	-0.3451	0.4570	0.9290	-0.6652	1.4247	1.3533	0.1912	0.6489	0.1859	-0.3599	
0.1000	 4.17802284185647E-0008	0.7327	0.8931	0.7327	0.5041	0.1765	1.6551	0.4938	0.5060	2.1138	-0.0338	0.2252	-1.4902	-0.5810	1.5034	1.8314	0.3626	0.1512	-0.8181	0.2471	1.1420	-0.6585	1.8099	1.2669	-0.1335	0.3946	-0.2062	-0.8212	0.8929	0.7324	0.5042	0.1769	1.6549	0.4938	0.5058	2.1140	-0.0336	0.2254	-1.4900	-0.5811	1.5031	1.8313	0.3626	0.1514	-0.8183	0.2472	1.1417	-0.6650	1.8097	1.2670	-0.1338	0.3949	-0.2058	-0.8211	
0.1500	 5.93183719793470E-0008	1.0979	1.4486	1.0979	0.5661	0.0514	1.4358	0.4768	0.8485	2.6522	-0.4313	-0.1425	-1.8011	-0.8728	2.0325	2.2227	0.6108	0.3060	-1.2910	0.0360	1.3530	-0.6349	2.1925	1.1803	-0.4585	0.1413	-0.5968	-1.2800	1.4486	1.0979	0.5662	0.0517	1.4358	0.4765	0.8479	2.6516	-0.4310	-0.1424	-1.8010	-0.8730	2.0328	2.2229	0.6108	0.3059	-1.2911	0.0359	1.3531	-0.6668	2.1923	1.1804	-0.4588	0.1416	-0.5968	-1.2800	
0.2000	 4.59040490006406E-0008	1.4607	1.9986	1.4607	0.6272	-0.0738	1.2176	0.4602	1.1886	3.1835	-0.8273	-0.5094	-2.1084	-1.1605	2.5542	2.6099	0.8589	0.4625	-1.7613	-0.1753	1.5626	-0.6749	2.5710	1.0947	-0.7808	-0.1105	-0.9857	-1.7356	1.9988	1.4607	0.6274	-0.0735	1.2173	0.4599	1.1889	3.1831	-0.8271	-0.5092	-2.1084	-1.1606	2.5545	2.6095	0.8589	0.4624	-1.7613	-0.1753	1.5629	-0.6559	2.5708	1.0949	-0.7812	-0.1105	-0.9857	-1.7357	
