Arquivo: c:\arq\medidas\BBA_1906_071854\BBA_AMP03B_V.dat
Data: 1906	 Hora:  0732
Comentário: 
NomeParametro	 ValorParametro
Nmedias	5
PausaCorretora	3000
PausaShunt	2000
PausaLeitura	500
NumCiclos	3
 NPassosCor	7
DeltaShunt	3.00
TetaIni	-0.10
TetaFim	0.10
I[mA]	 134.4
ACV09B	DeltaPos^2	AMP03B	AMP01B_0	AMP02A_0	AMP02B_0	AMP03A_0	AMP03B_0	AMP03C_0	AMP04A_0	AMP04B_0	AMP05A_0	AMP05B_0	AMP06A_0	AMP06B_0	AMP07A_0	AMP07B_0	AMP08A_0	AMP08B_0	AMP09A_0	AMP09B_0	AMP10A_0	AMP10B_0	AMU11A_0	AMU11B_0	AMP12A_0	AMP12B_0	AMP01A_0	AMP01B_1	AMP02A_1	AMP02B_1	AMP03A_1	AMP03B_1	AMP03C_1	AMP04A_1	AMP04B_1	AMP05A_1	AMP05B_1	AMP06A_1	AMP06B_1	AMP07A_1	AMP07B_1	AMP08A_1	AMP08B_1	AMP09A_1	AMP09B_1	AMP10A_1	AMP10B_1	AMU11A_1	AMU11B_1	AMP12A_1	AMP12B_1	AMP01A_1	
-0.1000	 6.35050728912947E-0003	1.4023	0.0855	0.4445	1.0420	1.2501	1.4023	-1.2277	-0.1302	-0.2848	1.2469	1.1698	0.9938	-1.4475	-0.9806	1.1193	1.6581	0.4197	0.3500	-0.8069	-0.0491	0.2430	0.8558	2.0887	1.2733	0.2749	-0.5979	0.1827	0.5269	1.1015	1.2971	1.3130	-1.4216	-0.2117	-0.3286	1.2265	1.2580	1.0316	-1.4933	-1.0794	1.1574	1.7111	0.4995	0.4452	-0.9256	-0.1258	0.2331	0.8888	2.1316	1.2729	0.2018	-0.7123	
-0.0667	 2.94583326135477E-0003	1.6667	-0.0677	0.2701	0.8340	1.0138	1.6667	-0.6459	0.0775	-0.2834	1.1255	1.0795	1.0183	-1.2350	-0.6426	0.8536	1.4379	0.2540	0.2199	-0.5096	0.1662	0.3612	0.8765	1.8945	1.1812	0.4074	-0.3354	-0.0015	0.3261	0.8744	1.0462	1.6060	-0.7781	0.0220	-0.3133	1.1121	1.1395	1.0440	-1.2660	-0.7098	0.8804	1.4741	0.3086	0.2849	-0.5906	0.1141	0.3543	0.8990	1.9240	1.1811	0.3577	-0.4126	
-0.0333	 7.76939765031777E-0004	1.9358	-0.2250	0.0915	0.6217	0.7714	1.9358	-0.0502	0.2896	-0.2822	1.0021	0.9866	1.0433	-1.0183	-0.2977	0.5838	1.2133	0.0848	0.0868	-0.2062	0.3858	0.4814	0.8972	1.6962	1.0872	0.5429	-0.0669	-0.1910	0.1203	0.6429	0.7883	1.9045	-0.1180	0.2611	-0.2973	0.9952	1.0176	1.0563	-1.0343	-0.3318	0.5978	1.2320	0.1130	0.1203	-0.2474	0.3590	0.4778	0.9088	1.7117	1.0874	0.5175	-0.1066	
0.0000	 6.93043087895957E-0007	2.2068	-0.3849	-0.0894	0.4073	0.5261	2.2068	0.5504	0.5036	-0.2805	0.8775	0.8926	1.0678	-0.7989	0.0507	0.3114	0.9860	-0.0866	-0.0488	0.1009	0.6081	0.6021	0.9174	1.4958	0.9930	0.6800	0.2047	-0.3836	-0.0886	0.4082	0.5267	2.2060	0.5490	0.5033	-0.2808	0.8777	0.8936	1.0686	-0.7988	0.0505	0.3115	0.9862	-0.0855	-0.0473	0.1000	0.6074	0.6032	0.9179	1.4971	0.9936	0.6795	0.2037	
0.0333	 7.32733284233093E-0004	2.4788	-0.5474	-0.2720	0.1908	0.2792	2.4788	1.1549	0.7193	-0.2788	0.7523	0.7973	1.0926	-0.5780	0.4008	0.0365	0.7563	-0.2596	-0.1854	0.4102	0.8317	0.7240	0.9372	1.2941	0.8982	0.8178	0.4790	-0.5794	-0.2992	0.1708	0.2627	2.5092	1.2215	0.7475	-0.2633	0.7596	0.7677	1.0801	-0.5618	0.4349	0.0231	0.7383	-0.2862	-0.2168	0.4506	0.8582	0.7272	0.9265	1.2804	0.8989	0.8427	0.5177	
0.0667	 2.99416882608243E-0003	2.7504	-0.7098	-0.4549	-0.0274	0.0303	2.7504	1.7592	0.9362	-0.2760	0.6277	0.7007	1.1162	-0.3566	0.7519	-0.2390	0.5266	-0.4332	-0.3232	0.7202	1.0559	0.8463	0.9568	1.0914	0.8033	0.9573	0.7543	-0.7754	-0.5108	-0.0683	-0.0031	2.8110	1.8922	0.9934	-0.2450	0.6427	0.6403	1.0909	-0.3244	0.8208	-0.2657	0.4897	-0.4873	-0.3878	0.8024	1.1088	0.8534	0.9350	1.0620	0.8038	1.0071	0.8329	
0.1000	 6.71412421384382E-0003	3.0216	-0.8727	-0.6384	-0.2459	-0.2192	3.0216	2.3607	1.1538	-0.2723	0.5035	0.6031	1.1395	-0.1351	1.1029	-0.5144	0.2960	-0.6069	-0.4611	1.0311	1.2811	0.9686	0.9773	0.8868	0.7081	1.0964	1.0308	-0.9715	-0.7225	-0.3076	-0.2689	3.1126	2.5588	1.2387	-0.2262	0.5255	0.5123	1.1012	-0.0866	1.2056	-0.5551	0.2409	-0.6886	-0.5583	1.1540	1.3598	0.9791	0.9442	0.8433	0.7093	1.1716	1.1486	
