Arquivo: c:\arq\medidas\BBA_1505_071958\BBA_AMU11B_V.dat
Data: 1505	 Hora:  0826
Comentário: 
NomeParametro	 ValorParametro
Nmedias	5
PausaCorretora	3000
PausaShunt	2000
PausaLeitura	500
NumCiclos	3
 NPassosCor	7
DeltaShunt	3.00
TetaIni	-0.10
TetaFim	0.10
I[mA]	  33.2
ACV11B	DeltaPos^2	AMU11B	AMP01B_0	AMP02A_0	AMP02B_0	AMP03A_0	AMP03B_0	AMP03C_0	AMP04A_0	AMP04B_0	AMP05A_0	AMP05B_0	AMP06A_0	AMP06B_0	AMP07A_0	AMP07B_0	AMP08A_0	AMP08B_0	AMP09A_0	AMP09B_0	AMP10A_0	AMP10B_0	AMU11A_0	AMU11B_0	AMP12A_0	AMP12B_0	AMP01A_0	AMP01B_1	AMP02A_1	AMP02B_1	AMP03A_1	AMP03B_1	AMP03C_1	AMP04A_1	AMP04B_1	AMP05A_1	AMP05B_1	AMP06A_1	AMP06B_1	AMP07A_1	AMP07B_1	AMP08A_1	AMP08B_1	AMP09A_1	AMP09B_1	AMP10A_1	AMP10B_1	AMU11A_1	AMU11B_1	AMP12A_1	AMP12B_1	AMP01A_1	
-0.1000	 6.96885811012704E-0003	0.6907	0.5620	0.3376	0.0105	-0.4088	2.3277	1.3071	0.9797	0.4673	1.7864	-0.1688	0.3426	-0.9905	0.1989	0.8829	1.1115	-0.6476	-1.0364	0.7237	1.2253	1.2611	1.4013	0.6907	0.1913	0.1062	-0.2052	0.6695	0.3827	-0.0445	-0.5278	2.3514	1.4144	1.0452	0.5630	1.8939	-0.3088	0.2476	-1.0106	0.2223	0.9461	1.1208	-0.7250	-1.1643	0.8096	1.3073	1.3405	1.4482	0.5845	0.0892	0.0400	-0.2460	
-0.0667	 3.60753113164847E-0003	0.9556	0.2821	0.2190	0.1449	-0.1110	2.2633	1.0472	0.8182	0.2239	1.5008	0.1858	0.5827	-0.9347	0.1434	0.7106	1.0814	-0.4557	-0.7069	0.5101	1.0194	1.0565	1.2665	0.9556	0.4469	0.2757	-0.0939	0.3596	0.2520	0.1053	-0.1968	2.2776	1.1231	0.8650	0.2936	1.5781	0.0844	0.5138	-0.9497	0.1585	0.7556	1.0888	-0.5110	-0.7985	0.5712	1.0785	1.1140	1.2986	0.8779	0.3736	0.2276	-0.1235	
-0.0333	 1.30787245592017E-0003	1.2258	-0.0038	0.0981	0.2813	0.1933	2.1968	0.7809	0.6536	-0.0243	1.2078	0.5483	0.8279	-0.8779	0.0868	0.5338	1.0506	-0.2598	-0.3696	0.2919	0.8094	0.8475	1.1284	1.2258	0.7078	0.4487	0.0196	0.0435	0.1183	0.2581	0.1415	2.2016	0.8249	0.6810	0.0173	1.2543	0.4859	0.7857	-0.8878	0.0939	0.5605	1.0557	-0.2929	-0.4243	0.3283	0.8444	0.8818	1.1450	1.1765	0.6637	0.4193	0.0013	
0.0000	 1.47100591030977E-0004	1.4966	-0.2922	-0.0242	0.4182	0.4995	2.1295	0.5139	0.4884	-0.2735	0.9123	0.9113	1.0742	-0.8205	0.0297	0.3557	1.0196	-0.0634	-0.0308	0.0718	0.5985	0.6372	0.9896	1.4966	0.9696	0.6228	0.1339	-0.2754	-0.0169	0.4113	0.4812	2.1259	0.5253	0.4963	-0.2600	0.9274	0.8881	1.0596	-0.8245	0.0296	0.3637	1.0217	-0.0737	-0.0480	0.0843	0.6091	0.6479	0.9909	1.4767	0.9558	0.6129	0.1271	
0.0333	 1.79503764776219E-0004	1.7665	-0.5814	-0.1463	0.5550	0.8049	2.0613	0.2462	0.3227	-0.5233	0.6165	1.2748	1.3203	-0.7629	-0.0273	0.1766	0.9888	0.1341	0.3091	-0.1479	0.3868	0.4265	0.8488	1.7665	1.2318	0.7972	0.2490	-0.5967	-0.1524	0.5646	0.8220	2.0493	0.2244	0.3108	-0.5384	0.5993	1.2927	1.3340	-0.7608	-0.0350	0.1657	0.9876	0.1469	0.3299	-0.1612	0.3724	0.4130	0.8357	1.7773	1.2486	0.8070	0.2539	
0.0667	 1.43412281922941E-0003	2.0343	-0.8706	-0.2687	0.6919	1.1092	1.9924	-0.0215	0.1573	-0.7723	0.3199	1.6361	1.5658	-0.7051	-0.0850	-0.0026	0.9571	0.3307	0.6479	-0.3676	0.1751	0.2161	0.7078	2.0343	1.4931	0.9718	0.3642	-0.9176	-0.2881	0.7179	1.1609	1.9726	-0.0756	0.1259	-0.8158	0.2705	1.6948	1.6075	-0.6973	-0.1001	-0.0312	0.9539	0.3668	0.7067	-0.4070	0.1361	0.1792	0.6808	2.0757	1.5397	1.0012	0.3813	
0.1000	 3.98976220320143E-0003	2.2995	-1.1584	-0.3910	0.8282	1.4106	1.9237	-0.2882	-0.0080	-1.0208	0.0241	1.9946	1.8103	-0.6480	-0.1427	-0.1801	0.9263	0.5270	0.9848	-0.5872	-0.0358	0.0069	0.5681	2.2995	1.7525	1.1460	0.4798	-1.2383	-0.4246	0.8705	1.4983	1.8969	-0.3744	-0.0591	-1.0938	-0.0589	2.0955	1.8807	-0.6340	-0.1641	-0.2283	0.9200	0.5864	1.0831	-0.6526	-0.0999	-0.0539	0.5271	2.3728	1.8294	1.1954	0.5097	
