Arquivo: c:\arq\medidas\BBA_1505_071958\BBA_AMP02A_V.dat
Data: 1505	 Hora:  0724
Comentário: 
NomeParametro	 ValorParametro
Nmedias	5
PausaCorretora	3000
PausaShunt	2000
PausaLeitura	500
NumCiclos	3
 NPassosCor	7
DeltaShunt	3.00
TetaIni	-0.10
TetaFim	0.10
I[mA]	 149.4
ACV07B	DeltaPos^2	AMP02A	AMP01B_0	AMP02A_0	AMP02B_0	AMP03A_0	AMP03B_0	AMP03C_0	AMP04A_0	AMP04B_0	AMP05A_0	AMP05B_0	AMP06A_0	AMP06B_0	AMP07A_0	AMP07B_0	AMP08A_0	AMP08B_0	AMP09A_0	AMP09B_0	AMP10A_0	AMP10B_0	AMU11A_0	AMU11B_0	AMP12A_0	AMP12B_0	AMP01A_0	AMP01B_1	AMP02A_1	AMP02B_1	AMP03A_1	AMP03B_1	AMP03C_1	AMP04A_1	AMP04B_1	AMP05A_1	AMP05B_1	AMP06A_1	AMP06B_1	AMP07A_1	AMP07B_1	AMP08A_1	AMP08B_1	AMP09A_1	AMP09B_1	AMP10A_1	AMP10B_1	AMU11A_1	AMU11B_1	AMP12A_1	AMP12B_1	AMP01A_1	
-0.1000	 4.88778116877684E-0004	-0.7578	-1.4060	-0.7578	0.2952	0.7508	2.5247	1.1057	0.5180	-0.9205	-0.1335	1.6426	1.7484	-0.2373	0.5568	-0.6609	0.2648	-0.5479	-0.3444	0.9707	1.0031	0.2361	0.2311	1.6331	1.4337	1.3831	1.0414	-1.4382	-0.7777	0.2766	0.7327	2.5511	1.1587	0.5361	-0.9250	-0.1516	1.6404	1.7564	-0.2149	0.5887	-0.6903	0.2423	-0.5601	-0.3495	0.9954	1.0134	0.2226	0.2086	1.6406	1.4497	1.4050	1.0660	
-0.0667	 2.61568478331010E-0004	-0.5424	-1.0730	-0.5424	0.3245	0.6656	2.4041	0.9332	0.5158	-0.7132	0.1935	1.3985	1.5286	-0.4170	0.3969	-0.3493	0.4956	-0.4017	-0.2522	0.6927	0.8794	0.3606	0.4587	1.5822	1.2859	1.1552	0.7732	-1.0968	-0.5569	0.3108	0.6526	2.4243	0.9715	0.5287	-0.7169	0.1799	1.3973	1.5348	-0.4005	0.4199	-0.3706	0.4789	-0.4106	-0.2555	0.7102	0.8868	0.3508	0.4420	1.5878	1.2977	1.1715	0.7912	
-0.0333	 9.72609120519364E-0005	-0.3228	-0.7328	-0.3228	0.3538	0.5790	2.2810	0.7567	0.5132	-0.5019	0.5261	1.1499	1.3036	-0.6004	0.2331	-0.0313	0.7308	-0.2534	-0.1586	0.4097	0.7532	0.4876	0.6905	1.5297	1.1344	0.9226	0.5000	-0.7477	-0.3319	0.3460	0.5719	2.2939	0.7795	0.5207	-0.5048	0.5172	1.1500	1.3084	-0.5901	0.2470	-0.0445	0.7208	-0.2582	-0.1595	0.4198	0.7574	0.4817	0.6800	1.5338	1.1419	0.9327	0.5110	
0.0000	 1.26894824194605E-0005	-0.1006	-0.3886	-0.1006	0.3845	0.4921	2.1560	0.5770	0.5100	-0.2889	0.8607	0.8988	1.0765	-0.7858	0.0663	0.2903	0.9685	-0.1030	-0.0640	0.1233	0.6260	0.6162	0.9242	1.4767	0.9811	0.6869	0.2238	-0.3941	-0.1040	0.3820	0.4908	2.1615	0.5842	0.5120	-0.2908	0.8566	0.9000	1.0796	-0.7820	0.0709	0.2854	0.9649	-0.1040	-0.0629	0.1263	0.6266	0.6138	0.9206	1.4787	0.9845	0.6910	0.2278	
0.0333	 1.22446286092878E-0005	0.1235	-0.0430	0.1235	0.4154	0.4051	2.0292	0.3955	0.5066	-0.0744	1.1978	0.6471	0.8479	-0.9726	-0.1007	0.6135	1.2077	0.0481	0.0305	-0.1648	0.4984	0.7458	1.1590	1.4230	0.8264	0.4499	-0.0536	-0.0390	0.1256	0.4185	0.4098	2.0274	0.3862	0.5035	-0.0754	1.1988	0.6495	0.8486	-0.9753	-0.1064	0.6179	1.2108	0.0513	0.0339	-0.1695	0.4963	0.7479	1.1617	1.4231	0.8255	0.4474	-0.0567	
0.0667	 9.60752089712979E-0005	0.3476	0.3030	0.3476	0.4465	0.3180	1.9020	0.2129	0.5031	0.1407	1.5351	0.3938	0.6184	-1.1599	-0.2700	0.9382	1.4473	0.2002	0.1261	-0.4536	0.3705	0.8763	1.3939	1.3691	0.6716	0.2116	-0.3325	0.3163	0.3555	0.4550	0.3286	1.8928	0.1883	0.4948	0.1407	1.5410	0.3972	0.6170	-1.1691	-0.2851	0.9506	1.4573	0.2070	0.1314	-0.4659	0.3652	0.8821	1.4034	1.3668	0.6655	0.2027	-0.3427	
0.1000	 2.62211730341601E-0004	0.5719	0.6502	0.5719	0.4776	0.2306	1.7742	0.0303	0.4998	0.3558	1.8725	0.1393	0.3879	-1.3473	-0.4389	1.2626	1.6867	0.3521	0.2216	-0.7436	0.2420	1.0067	1.6303	1.3156	0.5154	-0.0275	-0.6127	0.6728	0.5854	0.4914	0.2469	1.7574	-0.0103	0.4860	0.3572	1.8828	0.1438	0.3848	-1.3627	-0.4633	1.2831	1.7036	0.3630	0.2289	-0.7631	0.2332	1.0165	1.6461	1.3118	0.5053	-0.0426	-0.6300	
