Arquivo: c:\arq\medidas\BBA_1505_071958\BBA_AMP12A_V.dat
Data: 1505	 Hora:  0829
Comentário: 
NomeParametro	 ValorParametro
Nmedias	5
PausaCorretora	3000
PausaShunt	2000
PausaLeitura	500
NumCiclos	3
 NPassosCor	7
DeltaShunt	3.00
TetaIni	-0.10
TetaFim	0.10
I[mA]	  33.1
ACV09A	DeltaPos^2	AMP12A	AMP01B_0	AMP02A_0	AMP02B_0	AMP03A_0	AMP03B_0	AMP03C_0	AMP04A_0	AMP04B_0	AMP05A_0	AMP05B_0	AMP06A_0	AMP06B_0	AMP07A_0	AMP07B_0	AMP08A_0	AMP08B_0	AMP09A_0	AMP09B_0	AMP10A_0	AMP10B_0	AMU11A_0	AMU11B_0	AMP12A_0	AMP12B_0	AMP01A_0	AMP01B_1	AMP02A_1	AMP02B_1	AMP03A_1	AMP03B_1	AMP03C_1	AMP04A_1	AMP04B_1	AMP05A_1	AMP05B_1	AMP06A_1	AMP06B_1	AMP07A_1	AMP07B_1	AMP08A_1	AMP08B_1	AMP09A_1	AMP09B_1	AMP10A_1	AMP10B_1	AMU11A_1	AMU11B_1	AMP12A_1	AMP12B_1	AMP01A_1	
-0.1000	 2.93731380196739E-0004	0.3574	-0.1489	-0.1902	-0.2358	-0.4921	2.7796	2.1481	1.1737	0.0974	1.0868	0.1757	0.7596	-0.4506	0.8385	0.0602	0.5929	-0.7316	-0.9100	0.5052	1.1053	1.2936	1.5100	0.7170	0.3574	0.6163	0.4979	-0.1213	-0.1745	-0.2398	-0.5071	2.7726	2.1493	1.1801	0.1182	1.1136	0.1495	0.7381	-0.4626	0.8282	0.0834	0.6029	-0.7413	-0.9303	0.5120	1.1172	1.3128	1.5243	0.6942	0.3383	0.5979	0.4798	
-0.0667	 1.37744745389011E-0004	0.5613	-0.2012	-0.1389	-0.0214	-0.1656	2.5690	1.6172	0.9487	-0.0282	1.0234	0.4217	0.8669	-0.5685	0.5764	0.1511	0.7297	-0.5108	-0.6179	0.3604	0.9368	1.0767	1.3380	0.9756	0.5613	0.6222	0.3829	-0.1823	-0.1286	-0.0242	-0.1764	2.5630	1.6179	0.9532	-0.0143	1.0414	0.4030	0.8522	-0.5768	0.5682	0.1662	0.7370	-0.5178	-0.6315	0.3651	0.9445	1.0898	1.3458	0.9591	0.5483	0.6096	0.3706	
-0.0333	 3.69517777384519E-0005	0.7680	-0.2550	-0.0880	0.1959	0.1653	2.3547	1.0775	0.7209	-0.1555	0.9590	0.6705	0.9757	-0.6877	0.3108	0.2422	0.8684	-0.2879	-0.3220	0.2138	0.7657	0.8568	1.1636	1.2372	0.7680	0.6285	0.2670	-0.2455	-0.0829	0.1941	0.1591	2.3494	1.0776	0.7232	-0.1489	0.9672	0.6597	0.9680	-0.6918	0.3058	0.2487	0.8713	-0.2915	-0.3284	0.2168	0.7697	0.8628	1.1647	1.2264	0.7612	0.6223	0.2611	
0.0000	 3.72454965934447E-0006	0.9765	-0.3103	-0.0371	0.4141	0.4996	2.1379	0.5301	0.4911	-0.2844	0.8933	0.9214	1.0860	-0.8077	0.0426	0.3342	1.0077	-0.0624	-0.0231	0.0653	0.5931	0.6342	0.9875	1.5007	0.9765	0.6359	0.1506	-0.3103	-0.0374	0.4134	0.4978	2.1337	0.5303	0.4913	-0.2844	0.8917	0.9186	1.0852	-0.8073	0.0413	0.3317	1.0068	-0.0626	-0.0227	0.0666	0.5932	0.6333	0.9820	1.4965	0.9768	0.6360	0.1512	
0.0333	 3.88471495902742E-0005	1.1868	-0.3673	0.0134	0.6333	0.8359	1.9187	-0.0197	0.2601	-0.4135	0.8278	1.1747	1.1964	-0.9278	-0.2270	0.4261	1.1471	0.1640	0.2784	-0.0832	0.4201	0.4099	0.8083	1.7660	1.1868	0.6441	0.0349	-0.3766	0.0079	0.6336	0.8379	1.9156	-0.0200	0.2580	-0.4206	0.8166	1.1794	1.2028	-0.9232	-0.2243	0.4145	1.1428	0.1670	0.2849	-0.0834	0.4155	0.4020	0.7965	1.7675	1.1935	0.6505	0.0423	
0.0667	 1.44447656447627E-0004	1.3962	-0.4251	0.0634	0.8521	1.1706	1.6990	-0.5700	0.0291	-0.5417	0.7622	1.4266	1.3067	-1.0477	-0.4968	0.5181	1.2865	0.3900	0.5789	-0.2314	0.2471	0.1856	0.6281	2.0298	1.3962	0.6525	-0.0803	-0.4439	0.0520	0.8539	1.1767	1.6981	-0.5704	0.0250	-0.5560	0.7409	1.4389	1.3207	-1.0386	-0.4900	0.4971	1.2780	0.3965	0.5918	-0.2330	0.2388	0.1710	0.6104	2.0376	1.4093	0.6656	-0.0659	
0.1000	 3.33168041880052E-0004	1.6056	-0.4835	0.1134	1.0707	1.5035	1.4778	-1.1197	-0.2017	-0.6702	0.6967	1.6768	1.4161	-1.1677	-0.7675	0.6100	1.4253	0.6159	0.8788	-0.3780	0.0747	-0.0387	0.4465	2.2919	1.6056	0.6613	-0.1948	-0.5126	0.0965	1.0739	1.5142	1.4792	-1.1209	-0.2079	-0.6921	0.6653	1.6983	1.4377	-1.1542	-0.7559	0.5799	1.4133	0.6259	0.8991	-0.3820	0.0616	-0.0608	0.4230	2.3073	1.6262	0.6811	-0.1733	
