Arquivo: c:\arq\medidas\BBA_1505_071958\BBA_AMP06B_V.dat
Data: 1505	 Hora:  0755
Comentário: 
NomeParametro	 ValorParametro
Nmedias	5
PausaCorretora	3000
PausaShunt	2000
PausaLeitura	500
NumCiclos	3
 NPassosCor	7
DeltaShunt	3.00
TetaIni	-0.10
TetaFim	0.10
I[mA]	 143.9
ACV09B	DeltaPos^2	AMP06B	AMP01B_0	AMP02A_0	AMP02B_0	AMP03A_0	AMP03B_0	AMP03C_0	AMP04A_0	AMP04B_0	AMP05A_0	AMP05B_0	AMP06A_0	AMP06B_0	AMP07A_0	AMP07B_0	AMP08A_0	AMP08B_0	AMP09A_0	AMP09B_0	AMP10A_0	AMP10B_0	AMU11A_0	AMU11B_0	AMP12A_0	AMP12B_0	AMP01A_0	AMP01B_1	AMP02A_1	AMP02B_1	AMP03A_1	AMP03B_1	AMP03C_1	AMP04A_1	AMP04B_1	AMP05A_1	AMP05B_1	AMP06A_1	AMP06B_1	AMP07A_1	AMP07B_1	AMP08A_1	AMP08B_1	AMP09A_1	AMP09B_1	AMP10A_1	AMP10B_1	AMU11A_1	AMU11B_1	AMP12A_1	AMP12B_1	AMP01A_1	
-0.1000	 2.22475167136338E-0004	-1.4545	0.1110	0.4558	1.0276	1.2221	1.3519	-1.1993	-0.1110	-0.2547	1.2874	1.1547	0.9808	-1.4545	-0.9793	1.1281	1.6621	0.4102	0.3298	-0.7964	-0.0341	0.2659	0.8780	2.0666	1.2497	0.2614	-0.6055	0.1349	0.4713	1.0302	1.2167	1.3432	-1.2124	-0.1115	-0.2400	1.3115	1.1385	0.9650	-1.4695	-1.0028	1.1487	1.6782	0.4203	0.3367	-0.8166	-0.0430	0.2742	0.8937	2.0641	1.2403	0.2452	-0.6252	
-0.0667	 7.48214079720234E-0005	-1.2508	-0.0243	0.2980	0.8353	1.0013	1.5960	-0.6629	0.0759	-0.2670	1.1574	1.0871	1.0161	-1.2508	-0.6629	0.8696	1.4526	0.2637	0.2244	-0.5270	0.1620	0.3779	0.9023	1.8860	1.1617	0.3796	-0.3674	-0.0100	0.3072	0.8368	0.9979	1.5912	-0.6701	0.0756	-0.2584	1.1716	1.0778	1.0069	-1.2593	-0.6761	0.8816	1.4619	0.2696	0.2284	-0.5388	0.1570	0.3828	0.9113	1.8849	1.1568	0.3701	-0.3790	
-0.0333	 5.85094378217219E-0006	-1.0436	-0.1625	0.1374	0.6391	0.7758	1.8437	-0.1158	0.2662	-0.2795	1.0253	1.0178	1.0517	-1.0436	-0.3399	0.6064	1.2398	0.1143	0.1167	-0.2530	0.3621	0.4919	0.9266	1.7021	1.0724	0.4998	-0.1249	-0.1582	0.1399	0.6395	0.7742	1.8429	-0.1170	0.2668	-0.2770	1.0295	1.0150	1.0488	-1.0457	-0.3433	0.6099	1.2422	0.1158	0.1177	-0.2560	0.3608	0.4933	0.9291	1.7023	1.0714	0.4973	-0.1282	
0.0000	 1.57200207610767E-0005	-0.8342	-0.3026	-0.0256	0.4413	0.5474	2.0926	0.4365	0.4589	-0.2914	0.8926	0.9468	1.0869	-0.8342	-0.0148	0.3412	1.0241	-0.0368	0.0069	0.0240	0.5640	0.6067	0.9506	1.5160	0.9822	0.6215	0.1201	-0.3080	-0.0294	0.4401	0.5477	2.0962	0.4414	0.4597	-0.2948	0.8870	0.9511	1.0905	-0.8298	-0.0076	0.3365	1.0197	-0.0399	0.0045	0.0296	0.5669	0.6048	0.9469	1.5170	0.9851	0.6258	0.1251	
0.0333	 1.08761647849431E-0004	-0.6234	-0.4442	-0.1894	0.2415	0.3166	2.3428	0.9921	0.6531	-0.3028	0.7596	0.8750	1.1217	-0.6234	0.3121	0.0742	0.8065	-0.1892	-0.1037	0.3040	0.7677	0.7228	0.9750	1.3278	0.8906	0.7437	0.3676	-0.4600	-0.1999	0.2389	0.3190	2.3505	1.0032	0.6543	-0.3122	0.7441	0.8861	1.1320	-0.6125	0.3302	0.0606	0.7953	-0.1969	-0.1094	0.3185	0.7748	0.7173	0.9647	1.3302	0.8978	0.7552	0.3808	
0.0667	 2.79875390593886E-0004	-0.4128	-0.5858	-0.3532	0.0407	0.0854	2.5917	1.5460	0.8472	-0.3134	0.6276	0.8020	1.1558	-0.4128	0.6391	-0.1925	0.5896	-0.3418	-0.2147	0.5838	0.9713	0.8388	0.9996	1.1390	0.7988	0.8660	0.6149	-0.6115	-0.3705	0.0369	0.0898	2.6035	1.5626	0.8486	-0.3292	0.6022	0.8204	1.1727	-0.3954	0.6668	-0.2150	0.5717	-0.3540	-0.2234	0.6066	0.9824	0.8306	0.9825	1.1424	0.8099	0.8844	0.6365	
0.1000	 5.20966452507071E-0004	-0.2025	-0.7267	-0.5168	-0.1599	-0.1461	2.8403	2.0961	1.0418	-0.3234	0.4964	0.7284	1.1896	-0.2025	0.9657	-0.4593	0.3729	-0.4939	-0.3260	0.8630	1.1747	0.9557	1.0248	0.9496	0.7073	0.9884	0.8626	-0.7621	-0.5407	-0.1648	-0.1399	2.8554	2.1186	1.0435	-0.3453	0.4612	0.7534	1.2130	-0.1789	1.0027	-0.4896	0.3481	-0.5105	-0.3377	0.8944	1.1897	0.9435	1.0017	0.9540	0.7223	1.0132	0.8921	
