Arquivo: c:\arq\medidas\BBA_1203_071921\BBA_AMP04B_V.dat
Data: 1203	 Hora:  0744
Comentário: 
NomeParametro	 ValorParametro
Nmedias	5
PausaCorretora	3000
PausaShunt	2000
PausaLeitura	500
NumCiclos	3
 NPassosCor	9
DeltaShunt	3.00
TetaIni	-0.20
TetaFim	0.20
I[mA]	 130.7
ACV11A	DeltaPos^2	AMP04B	AMP01B_0	AMP02A_0	AMP02B_0	AMP03A_0	AMP03B_0	AMP04A_0	AMP04B_0	AMP05A_0	AMP05B_0	AMP06A_0	AMP06B_0	AMP07A_0	AMP07B_0	AMP08A_0	AMP08B_0	AMP09A_0	AMP09B_0	AMP10A_0	AMP10B_0	AMP11A_0	AMU11A_0	AMU11B_0	AMP11B_0	AMP12A_0	AMP12B_0	AMP01A_0	AMP01B_1	AMP02A_1	AMP02B_1	AMP03A_1	AMP03B_1	AMP04A_1	AMP04B_1	AMP05A_1	AMP05B_1	AMP06A_1	AMP06B_1	AMP07A_1	AMP07B_1	AMP08A_1	AMP08B_1	AMP09A_1	AMP09B_1	AMP10A_1	AMP10B_1	AMP11A_1	AMU11A_1	AMU11B_1	AMP11B_1	AMP12A_1	AMP12B_1	AMP01A_1	
-0.2000	 7.96009651888443E-0004	-1.6116	-2.3545	-1.2998	0.4092	1.3019	2.6629	0.3289	-1.6116	-1.1090	2.5263	2.4580	0.1705	0.7918	-1.4602	0.1562	0.5346	1.4627	-0.2757	-0.1416	-0.7778	-0.2033	-0.5979	2.0500	1.0219	1.9930	2.0301	1.6750	-2.3790	-1.3044	0.4345	1.3475	2.6432	0.3005	-1.6412	-1.1562	2.5610	2.4906	0.1966	0.8147	-1.5043	0.1328	0.5453	1.4933	-0.2780	-0.1552	-0.8103	-0.1824	-0.6295	2.0835	0.9636	2.0233	2.0434	1.6750	
-0.1500	 4.48249641998497E-0004	-1.2699	-1.8435	-0.9866	0.4054	1.0997	2.5280	0.3750	-1.2699	-0.5975	2.1066	2.1020	-0.0775	0.6030	-1.0078	0.3723	0.3886	1.0961	-0.1936	0.0410	-0.4243	-0.1756	-0.2049	1.9065	0.8773	1.7351	1.6816	1.2956	-1.8629	-0.9910	0.4237	1.1335	2.5145	0.3545	-1.2924	-0.6332	2.1325	2.1267	-0.0577	0.6203	-1.0413	0.3546	0.3963	1.1193	-0.1949	0.0308	-0.4484	-0.1862	-0.2289	1.9309	0.8355	1.7580	1.6922	1.2967	
-0.1000	 1.73670623395792E-0004	-0.9189	-1.3159	-0.6638	0.4022	0.8922	2.3875	0.4219	-0.9189	-0.0706	1.6746	1.7346	-0.3342	0.4061	-0.5394	0.5959	0.2407	0.7211	-0.1129	0.2265	-0.0607	-0.1953	0.1997	1.7569	0.7272	1.4676	1.3215	0.9043	-1.3286	-0.6670	0.4134	0.9132	2.3804	0.4090	-0.9326	-0.0930	1.6911	1.7504	-0.3218	0.4172	-0.5602	0.5853	0.2454	0.7355	-0.1135	0.2204	-0.0755	-0.2114	0.1850	1.7718	0.7022	1.4819	1.3287	0.9055	
-0.0500	 2.44207008566895E-0005	-0.5615	-0.7780	-0.3357	0.3999	0.6824	2.2441	0.4689	-0.5615	0.4642	1.2351	1.3609	-0.5962	0.2046	-0.0625	0.8247	0.0922	0.3420	-0.0341	0.4130	0.3091	-0.1990	0.6119	1.6032	0.5734	1.1940	0.9552	0.5069	-0.7836	-0.3374	0.4038	0.6905	2.2426	0.4643	-0.5671	0.4558	1.2413	1.3668	-0.5916	0.2082	-0.0699	0.8211	0.0943	0.3483	-0.0348	0.4106	0.3043	-0.1868	0.6068	1.6088	0.5649	1.1992	0.9584	0.5082	
0.0000	 1.39534923550229E-0005	-0.1995	-0.2318	-0.0027	0.3984	0.4710	2.0972	0.5151	-0.1995	1.0039	0.7900	0.9814	-0.8625	-0.0020	0.4215	1.0574	-0.0568	-0.0402	0.0425	0.6003	0.6836	-0.2029	1.0290	1.4472	0.4150	0.9145	0.5823	0.1041	-0.2303	-0.0030	0.3952	0.4657	2.1015	0.5190	-0.1962	1.0098	0.7859	0.9776	-0.8659	-0.0056	0.4276	1.0613	-0.0574	-0.0429	0.0420	0.6020	0.6888	-0.2043	1.0341	1.4422	0.4233	0.9106	0.5816	0.1055	
0.0500	 1.45631002215758E-0004	0.1647	0.3161	0.3328	0.3976	0.2589	1.9481	0.5615	0.1647	1.5469	0.3418	0.5986	-1.1308	-0.2113	0.9090	1.2924	-0.2056	-0.4238	0.1186	0.7883	1.0609	-0.1713	1.4479	1.2899	0.2538	0.6321	0.2065	-0.3015	0.3252	0.3344	0.3870	0.2406	1.9584	0.5735	0.1768	1.5667	0.3276	0.5855	-1.1425	-0.2227	0.9290	1.3033	-0.2092	-0.4350	0.1186	0.7938	1.0761	-0.2047	1.4625	1.2752	0.2786	0.6192	0.2015	-0.3005	
0.1000	 4.14134400921450E-0004	0.5282	0.8655	0.6684	0.3975	0.0472	1.7971	0.6067	0.5282	2.0872	-0.1075	0.2155	-1.3993	-0.4215	1.3958	1.5270	-0.3546	-0.8080	0.1941	0.9760	1.4371	-0.1884	1.8671	1.1333	0.0897	0.3492	-0.1704	-0.7098	0.8815	0.6713	0.3800	0.0158	1.8128	0.6263	0.5486	2.1211	-0.1317	0.1929	-1.4187	-0.4401	1.4288	1.5452	-0.3606	-0.8276	0.1933	0.9853	1.4624	-0.1978	1.8915	1.1085	0.1312	0.3268	-0.1795	-0.7087	
0.1500	 8.06784137199219E-0004	0.8898	1.4109	1.0033	0.3982	-0.1632	1.6460	0.6518	0.8898	2.6212	-0.5547	-0.1662	-1.6658	-0.6292	1.8780	1.7594	-0.5035	-1.1901	0.2697	1.1632	1.8112	-0.1948	2.2826	0.9772	-0.0745	0.0675	-0.5456	-1.1159	1.4339	1.0074	0.3734	-0.2076	1.6677	0.6796	0.9190	2.6678	-0.5886	-0.1978	-1.6928	-0.6551	1.9239	1.7848	-0.5120	-1.2183	0.2692	1.1760	1.8454	-0.2012	2.3162	0.9426	-0.0160	0.0363	-0.5581	-1.1147	
0.2000	 1.28754753183243E-0003	1.2472	1.9483	1.3341	0.3989	-0.3709	1.4954	0.6962	1.2472	3.1443	-0.9968	-0.5439	-1.9277	-0.8327	2.3515	1.9878	-0.6518	-1.5692	0.3467	1.3491	2.1797	-0.1984	2.6899	0.8243	-0.2378	-0.2099	-0.9166	-1.5169	1.9778	1.3392	0.3672	-0.4272	1.5230	0.7318	1.2836	3.2027	-1.0395	-0.5844	-1.9620	-0.8657	2.4088	2.0202	-0.6628	-1.6043	0.3462	1.3652	2.2227	-0.1796	2.7321	0.7807	-0.1637	-0.2498	-0.9328	-1.5155	
