Arquivo: c:\arq\medidas\BBA_1203_071921\BBA_AMP02B_V.dat
Data: 1203	 Hora:  0729
Comentário: 
NomeParametro	 ValorParametro
Nmedias	5
PausaCorretora	3000
PausaShunt	2000
PausaLeitura	500
NumCiclos	3
 NPassosCor	9
DeltaShunt	3.00
TetaIni	-0.20
TetaFim	0.20
I[mA]	 132.2
ACV09B	DeltaPos^2	AMP02B	AMP01B_0	AMP02A_0	AMP02B_0	AMP03A_0	AMP03B_0	AMP04A_0	AMP04B_0	AMP05A_0	AMP05B_0	AMP06A_0	AMP06B_0	AMP07A_0	AMP07B_0	AMP08A_0	AMP08B_0	AMP09A_0	AMP09B_0	AMP10A_0	AMP10B_0	AMP11A_0	AMU11A_0	AMU11B_0	AMP11B_0	AMP12A_0	AMP12B_0	AMP01A_0	AMP01B_1	AMP02A_1	AMP02B_1	AMP03A_1	AMP03B_1	AMP04A_1	AMP04B_1	AMP05A_1	AMP05B_1	AMP06A_1	AMP06B_1	AMP07A_1	AMP07B_1	AMP08A_1	AMP08B_1	AMP09A_1	AMP09B_1	AMP10A_1	AMP10B_1	AMP11A_1	AMU11A_1	AMU11B_1	AMP11B_1	AMP12A_1	AMP12B_1	AMP01A_1	
-0.2000	 1.46649930510787E-0003	1.6703	0.7657	1.1026	1.6703	1.9137	0.4187	-0.7537	-0.1030	1.8969	1.2209	0.7236	-2.2372	-2.1259	2.1704	2.4658	0.9149	0.6456	-1.7641	-0.6754	0.0572	-0.1878	1.0039	2.5599	-3.1999	1.3570	-0.2872	-1.5443	0.8141	1.1449	1.7086	1.9736	0.3760	-0.7960	-0.1260	1.8858	1.2654	0.7429	-2.2604	-2.1728	2.1871	2.4932	0.9575	0.6953	-1.8250	-0.7154	0.0507	-0.2064	1.0207	2.5828	-3.2972	1.3566	-0.3260	-1.6051	
-0.1500	 9.24785198902396E-0004	1.3727	0.5510	0.8551	1.3727	1.5681	0.8076	-0.4569	-0.1199	1.6958	1.1130	0.7784	-1.9194	-1.6324	1.7690	2.1407	0.6857	0.4798	-1.3446	-0.3730	0.2174	-0.1941	1.0255	2.2939	-2.3724	1.2431	-0.0962	-1.1724	0.5899	0.8893	1.4033	1.6154	0.7738	-0.4902	-0.1374	1.6881	1.1473	0.7927	-1.9385	-1.6701	1.7834	2.1624	0.7193	0.5182	-1.3932	-0.4042	0.2128	-0.1840	1.0396	2.3121	-2.4505	1.2415	-0.1275	-1.2214	
-0.1000	 4.79880048437777E-0004	1.0642	0.3272	0.5980	1.0642	1.2105	1.2081	-0.1500	-0.1365	1.4892	1.0005	0.8337	-1.5908	-1.1213	1.3541	1.8038	0.4472	0.3060	-0.9084	-0.0599	0.3819	-0.1925	1.0461	2.0189	-1.5056	1.1258	0.1024	-0.7857	0.3559	0.6231	1.0864	1.2443	1.1829	-0.1735	-0.1484	1.4845	1.0243	0.8435	-1.6052	-1.1485	1.3650	1.8198	0.4711	0.3327	-0.9434	-0.0822	0.3791	-0.2123	1.0570	2.0313	-1.5627	1.1239	0.0792	-0.8213	
-0.0500	 1.72829655503512E-0004	0.7493	0.0979	0.3354	0.7493	0.8473	1.6145	0.1628	-0.1522	1.2798	0.8847	0.8887	-1.2565	-0.6004	0.9321	1.4598	0.2031	0.1268	-0.4618	0.2595	0.5483	-0.2111	1.0653	1.7382	-0.6170	1.0074	0.3058	-0.3903	0.1157	0.3510	0.7628	0.8674	1.5988	0.1490	-0.1582	1.2786	0.8978	0.8939	-1.2656	-0.6165	0.9395	1.4702	0.2175	0.1417	-0.4825	0.2468	0.5475	-0.2198	1.0732	1.7454	-0.6515	1.0052	0.2912	-0.4120	
0.0000	 1.88215240334838E-0005	0.4299	-0.1354	0.0682	0.4299	0.4771	2.0247	0.4807	-0.1672	1.0687	0.7659	0.9442	-0.9177	-0.0716	0.5041	1.1111	-0.0451	-0.0561	-0.0087	0.5828	0.7157	-0.1911	1.0835	1.4536	0.2864	0.8876	0.5119	0.0109	-0.1287	0.0740	0.4343	0.4829	2.0186	0.4765	-0.1678	1.0707	0.7681	0.9441	-0.9215	-0.0763	0.5078	1.1149	-0.0409	-0.0538	-0.0148	0.5800	0.7172	-0.2173	1.0882	1.4545	0.2754	0.8848	0.5061	0.0034	
0.0500	 3.50190380708210E-0005	0.1044	-0.3747	-0.2040	0.1044	0.0997	2.4398	0.8036	-0.1814	0.8551	0.6437	0.9989	-0.5729	0.4647	0.0693	0.7554	-0.2984	-0.2432	0.4536	0.9120	0.8861	-0.2041	1.1012	1.1631	1.2029	0.7658	0.7217	0.4196	-0.3795	-0.2084	0.0996	0.0910	2.4432	0.8099	-0.1760	0.8600	0.6345	0.9940	-0.5709	0.4718	0.0689	0.7531	-0.3049	-0.2538	0.4627	0.9194	0.8897	-0.1929	1.1026	1.1572	1.2167	0.7627	0.7253	0.4273	
0.1000	 2.33972991270115E-0004	-0.2259	-0.6169	-0.4794	-0.2259	-0.2823	2.8558	1.1301	-0.1942	0.6407	0.5182	1.0526	-0.2249	1.0061	-0.3700	0.3964	-0.5539	-0.4332	0.9204	1.2453	1.0591	-0.2159	1.1209	0.8682	2.1224	0.6420	0.9345	0.8332	-0.6327	-0.4937	-0.2400	-0.3060	2.8693	1.1476	-0.1825	0.6495	0.4968	1.0421	-0.2175	1.0253	-0.3742	0.3873	-0.5712	-0.4566	0.9450	1.2626	1.0653	-0.2023	1.1190	0.8561	2.1606	0.6383	0.9468	0.8557	
0.1500	 6.07833936815835E-0004	-0.5569	-0.8584	-0.7548	-0.5569	-0.6664	3.2701	1.4583	-0.2053	0.4280	0.3900	1.1051	0.1232	1.5472	-0.8097	0.0370	-0.8104	-0.6231	1.3869	1.5779	1.2339	-0.2045	1.1419	0.5705	3.0318	0.5168	1.1470	1.2480	-0.8858	-0.7792	-0.5807	-0.7050	3.2931	1.4861	-0.1870	0.4404	0.3569	1.0893	0.1360	1.5774	-0.8172	0.0213	-0.8380	-0.6593	1.4263	1.6056	1.2422	-0.2137	1.1369	0.5519	3.0929	0.5122	1.1686	1.2848	
0.2000	 1.13785013187948E-0003	-0.8885	-1.0994	-1.0300	-0.8885	-1.0513	3.6811	1.7865	-0.2149	0.2165	0.2598	1.1560	0.4707	2.0857	-1.2481	-0.3228	-1.0664	-0.8124	1.8521	1.9108	1.4094	-0.2284	1.1650	0.2703	3.9251	0.3892	1.3584	1.6610	-1.1377	-1.0641	-0.9213	-1.1041	3.7131	1.8241	-0.1901	0.2331	0.2150	1.1345	0.4887	2.1266	-1.2589	-0.3445	-1.1042	-0.8613	1.9056	1.9483	1.4201	-0.1993	1.1571	0.2454	4.0069	0.3839	1.3886	1.7121	
