Arquivo: c:\arq\medidas\BBA_1203_071921\BBA_AMP01B_V.dat
Data: 1203	 Hora:  0721
Comentário: 
NomeParametro	 ValorParametro
Nmedias	5
PausaCorretora	3000
PausaShunt	2000
PausaLeitura	500
NumCiclos	3
 NPassosCor	9
DeltaShunt	1.50
TetaIni	-0.20
TetaFim	0.20
I[mA]	 132.9
ACV11A	DeltaPos^2	AMP01B	AMP01B_0	AMP02A_0	AMP02B_0	AMP03A_0	AMP03B_0	AMP04A_0	AMP04B_0	AMP05A_0	AMP05B_0	AMP06A_0	AMP06B_0	AMP07A_0	AMP07B_0	AMP08A_0	AMP08B_0	AMP09A_0	AMP09B_0	AMP10A_0	AMP10B_0	AMP11A_0	AMU11A_0	AMU11B_0	AMP11B_0	AMP12A_0	AMP12B_0	AMP01A_0	AMP01B_1	AMP02A_1	AMP02B_1	AMP03A_1	AMP03B_1	AMP04A_1	AMP04B_1	AMP05A_1	AMP05B_1	AMP06A_1	AMP06B_1	AMP07A_1	AMP07B_1	AMP08A_1	AMP08B_1	AMP09A_1	AMP09B_1	AMP10A_1	AMP10B_1	AMP11A_1	AMU11A_1	AMU11B_1	AMP11B_1	AMP12A_1	AMP12B_1	AMP01A_1	
-0.2000	 3.48898956468514E-0003	-2.4249	-2.4249	-1.3481	0.3949	1.2932	2.6652	0.3279	-1.6444	-1.1625	2.5718	2.4935	0.1951	0.8089	-1.5039	0.1198	0.5009	1.4267	-0.2336	-0.1221	-0.7991	-0.2002	-0.6399	2.0495	1.0447	2.0137	2.0788	1.7385	-2.5106	-1.4162	0.3522	1.2644	2.7340	0.3655	-1.6817	-1.2428	2.5986	2.5372	0.2660	0.8986	-1.6073	0.0508	0.4835	1.4414	-0.1824	-0.1128	-0.8577	-0.1945	-0.7184	2.0956	1.1809	2.0713	2.1350	1.7884	
-0.1500	 2.09168255749778E-0003	-1.9199	-1.9199	-1.0365	0.3934	1.0956	2.5308	0.3721	-1.3077	-0.6589	2.1577	2.1428	-0.0480	0.6255	-1.0597	0.3309	0.3556	1.0648	-0.1510	0.0584	-0.4515	-0.2077	-0.2532	1.9120	0.8983	1.7608	1.7328	1.3597	-1.9868	-1.0891	0.3611	1.0741	2.5830	0.4009	-1.3370	-0.7216	2.1795	2.1770	0.0067	0.6944	-1.1398	0.2778	0.3424	1.0768	-0.1114	0.0654	-0.4971	-0.1929	-0.3140	1.9479	1.0021	1.8062	1.7766	1.3986	
-0.1000	 9.26978519999242E-0004	-1.3985	-1.3985	-0.7159	0.3925	0.8929	2.3911	0.4166	-0.9615	-0.1408	1.7312	1.7810	-0.2993	0.4346	-0.6005	0.5500	0.2089	0.6949	-0.0693	0.2420	-0.0946	-0.1995	0.1447	1.7692	0.7469	1.4997	1.3767	0.9700	-1.4430	-0.7508	0.3708	0.8787	2.4263	0.4355	-0.9811	-0.1826	1.7457	1.8039	-0.2629	0.4804	-0.6539	0.5146	0.2000	0.7025	-0.0430	0.2469	-0.1248	-0.1812	0.1044	1.7929	0.8154	1.5297	1.4058	0.9961	
-0.0500	 2.05056825490551E-0004	-0.8682	-0.8682	-0.3903	0.3919	0.6882	2.2481	0.4614	-0.6105	0.3847	1.2983	1.4137	-0.5554	0.2385	-0.1323	0.7735	0.0619	0.3212	0.0099	0.4266	0.2680	-0.2127	0.5495	1.6227	0.5920	1.2329	1.0142	0.5745	-0.8889	-0.4063	0.3820	0.6818	2.2648	0.4705	-0.6198	0.3651	1.3053	1.4245	-0.5383	0.2600	-0.1576	0.7568	0.0579	0.3252	0.0223	0.4288	0.2537	-0.2095	0.5306	1.6344	0.6237	1.2469	1.0284	0.5866	
0.0000	 4.85268289996256E-0006	-0.3307	-0.3307	-0.0607	0.3924	0.4824	2.1026	0.5057	-0.2556	0.9134	0.8609	1.0420	-0.8151	0.0388	0.3403	1.0002	-0.0851	-0.0543	0.0879	0.6112	0.6344	-0.1963	0.9581	1.4738	0.4331	0.9605	0.6471	0.1749	-0.3270	-0.0582	0.3941	0.4836	2.1001	0.5041	-0.2543	0.9162	0.8600	1.0406	-0.8176	0.0352	0.3441	1.0030	-0.0842	-0.0540	0.0857	0.6103	0.6360	-0.1856	0.9610	1.4728	0.4276	0.9587	0.6451	0.1729	
0.0500	 3.65900803184720E-0004	0.2146	0.2146	0.2750	0.3935	0.2739	1.9533	0.5498	0.1052	1.4509	0.4163	0.6631	-1.0798	-0.1662	0.8221	1.2318	-0.2337	-0.4351	0.1649	0.7982	1.0071	-0.2183	1.3726	1.3222	0.2694	0.6827	0.2728	-0.2316	0.2432	0.2971	0.4072	0.2827	1.9308	0.5378	0.1172	1.4769	0.4074	0.6487	-1.1024	-0.1952	0.8552	1.2539	-0.2277	-0.4390	0.1480	0.7949	1.0258	-0.2071	1.3979	1.3084	0.2256	0.6642	0.2541	-0.2488	
0.1000	 1.27667512900632E-0003	0.7642	0.7642	0.6122	0.3954	0.0642	1.8014	0.5941	0.4675	1.9890	-0.0322	0.2817	-1.3457	-0.3723	1.3060	1.4636	-0.3831	-0.8184	0.2419	0.9866	1.3811	-0.1992	1.7902	1.1701	0.1029	0.4029	-0.1048	-0.6429	0.8167	0.6536	0.4212	0.0814	1.7595	0.5717	0.4910	2.0375	-0.0491	0.2549	-1.3882	-0.4267	1.3678	1.5053	-0.3720	-0.8264	0.2107	0.9802	1.4159	-0.2033	1.8369	1.1436	0.0212	0.3677	-0.1394	-0.6744	
0.1500	 2.67620154160592E-0003	1.3120	1.3120	0.9501	0.3982	-0.1444	1.6483	0.6382	0.8286	2.5233	-0.4803	-0.0995	-1.6109	-0.5779	1.7868	1.6954	-0.5325	-1.2014	0.3193	1.1743	1.7543	-0.2112	2.2050	1.0185	-0.0649	0.1233	-0.4820	-1.0539	1.3881	1.0099	0.4359	-0.1191	1.5869	0.6047	0.8615	2.5926	-0.5043	-0.1382	-1.6727	-0.6568	1.8767	1.7554	-0.5163	-1.2126	0.2734	1.1651	1.8043	-0.1989	2.2726	0.9796	-0.1853	0.0725	-0.5316	-1.0990	
0.2000	 4.46405781029833E-0003	1.8531	1.8531	1.2849	0.4013	-0.3507	1.4956	0.6815	1.1867	3.0473	-0.9241	-0.4778	-1.8723	-0.7802	2.2602	1.9230	-0.6815	-1.5808	0.3977	1.3612	2.1221	-0.2155	2.6132	0.8696	-0.2332	-0.1532	-0.8561	-1.4610	1.9511	1.3617	0.4504	-0.3169	1.4161	0.6379	1.2286	3.1361	-0.9547	-0.5278	-1.9520	-0.8826	2.3764	2.0009	-0.6606	-1.5951	0.3382	1.3491	2.1873	-0.2145	2.7000	0.8189	-0.3899	-0.2188	-0.9201	-1.5187	
