Arquivo: c:\arq\medidas\BBA_2003_073142\BBA_AMP07B_H.dat
Data: 2003	 Hora:  0812
Comentário: 
NomeParametro	 ValorParametro
Nmedias	5
PausaCorretora	3000
PausaShunt	2000
PausaLeitura	500
NumCiclos	3
 NPassosCor	7
DeltaShunt	3.00
TetaIni	-0.20
TetaFim	0.20
I[mA]	  31.6
ACH03B	DeltaPos^2	AMP07B	AMP01B_0	AMP02A_0	AMP02B_0	AMP03A_0	AMP03B_0	AMP03C_0	AMP04A_0	AMP04B_0	AMP05A_0	AMP05B_0	AMP06A_0	AMP06B_0	AMP07A_0	AMP07B_0	AMP08A_0	AMP08B_0	AMP09A_0	AMP09B_0	AMP10A_0	AMP10B_0	AMU11A_0	AMU11B_0	AMP12A_0	AMP12B_0	AMP01A_0	AMP01B_1	AMP02A_1	AMP02B_1	AMP03A_1	AMP03B_1	AMP03C_1	AMP04A_1	AMP04B_1	AMP05A_1	AMP05B_1	AMP06A_1	AMP06B_1	AMP07A_1	AMP07B_1	AMP08A_1	AMP08B_1	AMP09A_1	AMP09B_1	AMP10A_1	AMP10B_1	AMU11A_1	AMU11B_1	AMP12A_1	AMP12B_1	AMP01A_1	
-0.2000	 5.79333237360793E-0003	1.1643	-1.1017	1.3422	-1.7186	-2.3477	-2.7707	-3.2758	-0.2986	0.3189	-1.1798	-0.5161	-0.1660	-1.0492	1.6577	1.1643	-1.6046	-0.7889	2.2672	2.4891	-0.9878	-1.9242	1.6518	2.3464	-0.6325	-1.7152	-0.9134	-0.9552	1.3004	-1.7799	-2.2839	-2.6775	-3.2289	-0.2869	0.2904	-1.2425	-0.5363	-0.1032	-1.0192	1.4998	1.0306	-1.5889	-0.7396	2.2689	2.4504	-1.0252	-1.9261	1.7556	2.4298	-0.6991	-1.7660	-0.7733	
-0.1333	 2.23696019621573E-0003	0.6601	-1.1013	1.0941	-1.8035	-1.7004	-2.2265	-3.0270	-0.3065	0.1316	-1.3464	-0.4837	0.0776	-0.9729	1.0189	0.6601	-1.2397	-0.4874	1.5282	1.7249	-0.7268	-1.5719	1.2355	1.7915	-0.6301	-1.5247	-0.7137	-1.0125	1.0691	-1.8393	-1.6598	-2.1688	-2.9983	-0.2979	0.1146	-1.3870	-0.4974	0.1180	-0.9524	0.9150	0.5714	-1.2281	-0.4554	1.5219	1.6938	-0.7477	-1.5703	1.2937	1.8369	-0.6685	-1.5531	-0.6294	
-0.0667	 4.47584840596095E-0004	0.1460	-1.1057	0.8441	-1.8874	-1.0442	-1.6758	-2.7758	-0.3132	-0.0573	-1.5177	-0.4549	0.3243	-0.8947	0.3691	0.1460	-0.8699	-0.1822	0.7717	0.9432	-0.4620	-1.2144	0.8081	1.2231	-0.6251	-1.3302	-0.5165	-1.0652	0.8325	-1.9044	-1.0276	-1.6506	-2.7626	-0.3095	-0.0649	-1.5354	-0.4612	0.3420	-0.8860	0.3245	0.1085	-0.8653	-0.1682	0.7720	0.9321	-0.4716	-1.2151	0.8369	1.2460	-0.6436	-1.3441	-0.4774	
0.0000	 4.10208136915789E-0005	-0.3662	-1.1156	0.5982	-1.9673	-0.3967	-1.1331	-2.5272	-0.3169	-0.2406	-1.6914	-0.4314	0.5695	-0.8146	-0.2760	-0.3662	-0.5033	0.1206	0.0174	0.1637	-0.1984	-0.8604	0.3802	0.6543	-0.6176	-1.1360	-0.3270	-1.1284	0.6019	-1.9619	-0.4019	-1.1416	-2.5315	-0.3170	-0.2376	-1.6866	-0.4300	0.5652	-0.8166	-0.2652	-0.3565	-0.5043	0.1171	0.0146	0.1645	-0.1937	-0.8588	0.3693	0.6444	-0.6126	-1.1320	-0.3384	
0.0667	 1.13161448559112E-0003	-0.8767	-1.1316	0.3563	-2.0435	0.2436	-0.5982	-2.2821	-0.3183	-0.4203	-1.8659	-0.4119	0.8128	-0.7336	-0.9164	-0.8767	-0.1406	0.4202	-0.7322	-0.6112	0.0637	-0.5080	-0.0491	0.0846	-0.6079	-0.9417	-0.1443	-1.1973	0.3757	-2.0157	0.2167	-0.6398	-2.3036	-0.3232	-0.4079	-1.8395	-0.4038	0.7863	-0.7460	-0.8505	-0.8207	-0.1459	0.4002	-0.7378	-0.5992	0.0820	-0.5058	-0.0996	0.0420	-0.5779	-0.9182	-0.2067	
0.1333	 3.75435443781898E-0003	-1.3875	-1.1524	0.1165	-2.1175	0.8779	-0.0684	-2.0376	-0.3180	-0.5978	-2.0439	-0.3976	1.0556	-0.6508	-1.5536	-1.3875	0.2217	0.7194	-1.4788	-1.3831	0.3259	-0.1569	-0.4814	-0.4869	-0.5950	-0.7454	0.0327	-1.2723	0.1519	-2.0669	0.8287	-0.1444	-2.0769	-0.3265	-0.5746	-1.9961	-0.3830	1.0073	-0.6735	-1.4334	-1.2847	0.2113	0.6821	-1.4883	-1.3605	0.3581	-0.1534	-0.5717	-0.5629	-0.5406	-0.7031	-0.0821	
0.2000	 7.85770381864845E-0003	-1.8991	-1.1798	-0.1206	-2.1877	1.5030	0.4537	-1.7949	-0.3145	-0.7714	-2.2263	-0.3890	1.2990	-0.5655	-2.1875	-1.8991	0.5831	1.0182	-2.2223	-2.1503	0.5895	0.1945	-0.9175	-1.0610	-0.5787	-0.5464	0.2018	-1.3536	-0.0694	-2.1140	1.4322	0.3439	-1.8519	-0.3268	-0.7377	-2.1566	-0.3672	1.2290	-0.5986	-2.0137	-1.7501	0.5675	0.9643	-2.2342	-2.1168	0.6348	0.1993	-1.0474	-1.1697	-0.4991	-0.4856	0.0357	
