Arquivo: c:\arq\medidas\BBA_2003_073142\BBA_AMU11A_V.dat
Data: 2003	 Hora:  0835
Comentário: 
NomeParametro	 ValorParametro
Nmedias	5
PausaCorretora	3000
PausaShunt	2000
PausaLeitura	500
NumCiclos	3
 NPassosCor	7
DeltaShunt	3.00
TetaIni	-0.20
TetaFim	0.20
I[mA]	  28.9
ACV11A	DeltaPos^2	AMU11A	AMP01B_0	AMP02A_0	AMP02B_0	AMP03A_0	AMP03B_0	AMP03C_0	AMP04A_0	AMP04B_0	AMP05A_0	AMP05B_0	AMP06A_0	AMP06B_0	AMP07A_0	AMP07B_0	AMP08A_0	AMP08B_0	AMP09A_0	AMP09B_0	AMP10A_0	AMP10B_0	AMU11A_0	AMU11B_0	AMP12A_0	AMP12B_0	AMP01A_0	AMP01B_1	AMP02A_1	AMP02B_1	AMP03A_1	AMP03B_1	AMP03C_1	AMP04A_1	AMP04B_1	AMP05A_1	AMP05B_1	AMP06A_1	AMP06B_1	AMP07A_1	AMP07B_1	AMP08A_1	AMP08B_1	AMP09A_1	AMP09B_1	AMP10A_1	AMP10B_1	AMU11A_1	AMU11B_1	AMP12A_1	AMP12B_1	AMP01A_1	
-0.2000	 3.69532999772585E-0002	-1.0701	-2.9745	-1.6185	0.5256	1.6624	2.6937	1.0214	0.1508	-2.0821	-1.7445	3.1301	2.9411	0.4839	1.0454	-1.9794	-0.1306	0.5521	1.6849	-0.1468	-0.2068	-1.1699	-1.0701	2.3419	2.4765	2.4278	2.0689	-3.2946	-1.8131	0.5359	1.7978	2.7696	1.0940	0.1123	-2.3029	-2.0688	3.3980	3.1693	0.6443	1.1673	-2.2676	-0.2723	0.6395	1.9113	-0.1865	-0.3167	-1.3983	-1.3224	2.4368	2.6535	2.6447	2.3038	
-0.1333	 2.06597330351169E-0002	-0.4678	-2.2175	-1.1666	0.4922	1.3268	2.5225	0.8779	0.2498	-1.5600	-0.9748	2.4854	2.4022	0.1111	0.7640	-1.3002	0.1963	0.3442	1.1470	-0.0471	0.0537	-0.6345	-0.4678	2.0984	2.0463	1.9182	1.5257	-2.4576	-1.3115	0.4989	1.4268	2.5799	0.9332	0.2224	-1.7245	-1.2177	2.6845	2.5723	0.2326	0.8588	-1.5181	0.0891	0.4059	1.3127	-0.0717	-0.0247	-0.8046	-0.6576	2.1712	2.1807	2.0806	1.7004	
-0.0667	 7.30167744518734E-0003	0.1638	-1.4212	-0.6938	0.4590	0.9784	2.3412	0.7231	0.3517	-1.0149	-0.1684	1.8107	1.8362	-0.2825	0.4621	-0.5832	0.5429	0.1349	0.5927	0.0441	0.3179	-0.0748	0.1638	1.8388	1.5914	1.3837	0.9582	-1.5646	-0.7797	0.4626	1.0375	2.3756	0.7570	0.3355	-1.1117	-0.3127	1.9285	1.9374	-0.2096	0.5199	-0.7140	0.4783	0.1698	0.6901	0.0323	0.2732	-0.1757	0.0510	1.8824	1.6723	1.4802	1.0617	
0.0000	 2.93452167170792E-0004	0.8150	-0.5978	-0.2057	0.4277	0.6230	2.1497	0.5577	0.4529	-0.4533	0.6612	1.1162	1.2521	-0.6921	0.1435	0.1593	0.9042	-0.0745	0.0295	0.1284	0.5837	0.5004	0.8150	1.5684	1.1195	0.8307	0.3736	-0.6272	-0.2240	0.4279	0.6332	2.1551	0.5630	0.4502	-0.4723	0.6321	1.1374	1.2714	-0.6774	0.1547	0.1322	0.8906	-0.0677	0.0491	0.1266	0.5748	0.4799	0.7903	1.5735	1.1351	0.8507	0.3954	
0.0667	 2.30959337084059E-0003	1.4733	0.2367	0.2900	0.3982	0.2652	1.9530	0.3841	0.5537	0.1155	1.4978	0.4128	0.6578	-1.1092	-0.1839	0.9137	1.2722	-0.2828	-0.5365	0.2071	0.8495	1.0838	1.4733	1.2936	0.6380	0.2679	-0.2192	0.3159	0.3379	0.3958	0.2307	1.9294	0.3619	0.5626	0.1716	1.5770	0.3427	0.5988	-1.1503	-0.2168	0.9841	1.3082	-0.3032	-0.5904	0.2149	0.8751	1.1400	1.5322	1.2644	0.5912	0.2132	-0.2764	
0.1333	 1.31369761058984E-0002	2.1292	1.0698	0.7852	0.3709	-0.0905	1.7529	0.2056	0.6522	0.6823	2.3284	-0.2908	0.0648	-1.5253	-0.5124	1.6647	1.6400	-0.4897	-1.1009	0.2840	1.1138	1.6636	2.1292	1.0201	0.1567	-0.2952	-0.8147	1.2624	0.9012	0.3673	-0.1690	1.7023	0.1559	0.6724	0.8130	2.5181	-0.4520	-0.0731	-1.6234	-0.5915	1.8378	1.7265	-0.5361	-1.2289	0.2993	1.1738	1.7979	2.2770	0.9585	0.0470	-0.4265	-0.9545	
0.2000	 2.85300860988701E-0002	2.7682	1.8857	1.2733	0.3452	-0.4389	1.5534	0.0268	0.7488	1.2390	3.1351	-0.9822	-0.5200	-1.9324	-0.8329	2.3971	1.9988	-0.6954	-1.6559	0.3626	1.3751	2.2315	2.7682	0.7525	-0.3154	-0.8499	-1.4005	2.1684	1.4462	0.3397	-0.5560	1.4762	-0.0477	0.7787	1.4337	3.4107	-1.2214	-0.7257	-2.0763	-0.9466	2.6464	2.1255	-0.7675	-1.8477	0.3896	1.4666	2.4303	2.9828	0.6636	-0.4772	-1.0458	-1.6078	
