Arquivo: c:\arq\medidas\BBA_2003_073142\BBA_AMP12A_H.dat
Data: 2003	 Hora:  0840
Comentário: 
NomeParametro	 ValorParametro
Nmedias	5
PausaCorretora	3000
PausaShunt	2000
PausaLeitura	500
NumCiclos	3
 NPassosCor	7
DeltaShunt	3.00
TetaIni	-0.20
TetaFim	0.20
I[mA]	  28.8
ACH05B	DeltaPos^2	AMP12A	AMP01B_0	AMP02A_0	AMP02B_0	AMP03A_0	AMP03B_0	AMP03C_0	AMP04A_0	AMP04B_0	AMP05A_0	AMP05B_0	AMP06A_0	AMP06B_0	AMP07A_0	AMP07B_0	AMP08A_0	AMP08B_0	AMP09A_0	AMP09B_0	AMP10A_0	AMP10B_0	AMU11A_0	AMU11B_0	AMP12A_0	AMP12B_0	AMP01A_0	AMP01B_1	AMP02A_1	AMP02B_1	AMP03A_1	AMP03B_1	AMP03C_1	AMP04A_1	AMP04B_1	AMP05A_1	AMP05B_1	AMP06A_1	AMP06B_1	AMP07A_1	AMP07B_1	AMP08A_1	AMP08B_1	AMP09A_1	AMP09B_1	AMP10A_1	AMP10B_1	AMU11A_1	AMU11B_1	AMP12A_1	AMP12B_1	AMP01A_1	
-0.2000	 9.73700042819170E-0004	-1.4081	0.6003	0.5027	-2.5577	-0.7509	-0.9408	-2.1936	0.3717	-0.0869	-3.5314	-1.9129	0.6836	-0.2736	-0.0513	-0.6467	-1.0195	0.0357	1.4491	1.2386	-1.0780	-1.5279	2.3014	2.6038	-1.4081	-2.0519	0.9862	0.5675	0.4868	-2.5593	-0.7277	-0.9305	-2.1961	0.3394	-0.1090	-3.4812	-1.8694	0.6446	-0.3093	0.0060	-0.5867	-1.0511	-0.0027	1.4794	1.2820	-1.0911	-1.5540	2.2925	2.6059	-1.4023	-2.0408	0.9665	
-0.1333	 3.18429812572400E-0004	-1.1690	0.0784	0.5211	-2.3833	-0.6171	-0.9766	-2.2870	0.1535	-0.1453	-2.9633	-1.4527	0.6583	-0.4390	-0.1471	-0.5806	-0.8447	0.0738	0.9755	0.8735	-0.7964	-1.3081	1.7004	1.9880	-1.1690	-1.7673	0.5965	0.0497	0.5131	-2.3838	-0.6092	-0.9765	-2.2978	0.1340	-0.1575	-2.9415	-1.4340	0.6357	-0.4613	-0.1180	-0.5490	-0.8639	0.0502	0.9921	0.8982	-0.8028	-1.3245	1.6898	1.9845	-1.1636	-1.7585	0.5782	
-0.0667	 1.16721882885082E-0004	-0.9283	-0.4462	0.5405	-2.2063	-0.4824	-1.0129	-2.3786	-0.0659	-0.2026	-2.3848	-0.9880	0.6320	-0.6049	-0.2405	-0.5119	-0.6706	0.1115	0.5009	0.5087	-0.5145	-1.0885	1.0942	1.3666	-0.9283	-1.4811	0.2024	-0.4588	0.5352	-2.2067	-0.4744	-1.0096	-2.3802	-0.0772	-0.2101	-2.3672	-0.9730	0.6185	-0.6173	-0.2209	-0.4910	-0.6810	0.0981	0.5105	0.5230	-0.5181	-1.0973	1.0897	1.3661	-0.9259	-1.4764	0.1949	
0.0000	 7.12618243098375E-0007	-0.6819	-0.9830	0.5618	-2.0250	-0.3490	-1.0534	-2.4738	-0.2882	-0.2597	-1.7944	-0.5172	0.6062	-0.7727	-0.3368	-0.4444	-0.4933	0.1501	0.0173	0.1369	-0.2283	-0.8649	0.4731	0.7306	-0.6819	-1.1897	-0.2024	-0.9847	0.5614	-2.0247	-0.3481	-1.0533	-2.4738	-0.2888	-0.2604	-1.7930	-0.5162	0.6053	-0.7735	-0.3356	-0.4430	-0.4937	0.1493	0.0167	0.1371	-0.2278	-0.8651	0.4719	0.7296	-0.6815	-1.1886	-0.2029	
0.0667	 9.64664762599796E-0005	-0.4353	-1.5190	0.5845	-1.8426	-0.2184	-1.0966	-2.5698	-0.5092	-0.3150	-1.2031	-0.0490	0.5811	-0.9391	-0.4340	-0.3785	-0.3166	0.1890	-0.4647	-0.2350	0.0560	-0.6424	-0.1482	0.0925	-0.4353	-0.8993	-0.6113	-1.5107	0.5896	-1.8415	-0.2256	-1.1003	-2.5694	-0.4989	-0.3083	-1.2192	-0.0629	0.5929	-0.9279	-0.4521	-0.3970	-0.3065	0.2011	-0.4755	-0.2492	0.0609	-0.6336	-0.1470	0.0902	-0.4365	-0.9016	-0.6058	
0.1333	 4.10415167964840E-0004	-0.1865	-2.0581	0.6085	-1.6576	-0.0896	-1.1427	-2.6673	-0.7306	-0.3694	-0.6084	0.4193	0.5569	-1.1055	-0.5332	-0.3141	-0.1390	0.2291	-0.9500	-0.6098	0.3417	-0.4183	-0.7746	-0.5505	-0.1865	-0.6065	-1.0262	-2.0388	0.6193	-1.6556	-0.1046	-1.1501	-2.6659	-0.7095	-0.3555	-0.6414	0.3911	0.5819	-1.0822	-0.5702	-0.3524	-0.1182	0.2541	-0.9717	-0.6384	0.3510	-0.4006	-0.7706	-0.5536	-0.1892	-0.6120	-1.0138	
0.2000	 9.38321671714662E-0004	0.0625	-2.5922	0.6340	-1.4725	0.0363	-1.1908	-2.7650	-0.9499	-0.4225	-0.0180	0.8820	0.5338	-1.2693	-0.6338	-0.2527	0.0386	0.2701	-1.4327	-0.9841	0.6255	-0.1952	-1.3968	-1.1901	0.0625	-0.3146	-1.4407	-2.5627	0.6501	-1.4698	0.0130	-1.2021	-2.7631	-0.9176	-0.4004	-0.0686	0.8386	0.5718	-1.2340	-0.6896	-0.3110	0.0695	0.3076	-1.4633	-1.0264	0.6389	-0.1692	-1.3897	-1.1938	0.0579	-0.3239	-1.4222	
