Arquivo: c:\arq\medidas\BBA_2003_073142\BBA_AMP08B_H.dat
Data: 2003	 Hora:  0818
Comentário: 
NomeParametro	 ValorParametro
Nmedias	5
PausaCorretora	3000
PausaShunt	2000
PausaLeitura	500
NumCiclos	3
 NPassosCor	7
DeltaShunt	3.00
TetaIni	-0.20
TetaFim	0.20
I[mA]	  29.4
ACH03A	DeltaPos^2	AMP08B	AMP01B_0	AMP02A_0	AMP02B_0	AMP03A_0	AMP03B_0	AMP03C_0	AMP04A_0	AMP04B_0	AMP05A_0	AMP05B_0	AMP06A_0	AMP06B_0	AMP07A_0	AMP07B_0	AMP08A_0	AMP08B_0	AMP09A_0	AMP09B_0	AMP10A_0	AMP10B_0	AMU11A_0	AMU11B_0	AMP12A_0	AMP12B_0	AMP01A_0	AMP01B_1	AMP02A_1	AMP02B_1	AMP03A_1	AMP03B_1	AMP03C_1	AMP04A_1	AMP04B_1	AMP05A_1	AMP05B_1	AMP06A_1	AMP06B_1	AMP07A_1	AMP07B_1	AMP08A_1	AMP08B_1	AMP09A_1	AMP09B_1	AMP10A_1	AMP10B_1	AMU11A_1	AMU11B_1	AMP12A_1	AMP12B_1	AMP01A_1	
-0.2000	 1.34035106346083E-0003	-0.5598	-0.5204	1.1299	-1.9830	-2.0032	-3.0157	-3.3310	-0.0384	0.5052	-1.7557	-1.0673	0.0861	-0.7764	1.1892	0.6156	-1.4933	-0.5598	2.1922	2.2553	-1.1043	-1.8871	2.0122	2.6101	-0.9023	-1.8926	-0.3257	-0.4520	1.0921	-2.0245	-1.9583	-2.9592	-3.3054	-0.0536	0.4730	-1.7653	-1.0572	0.0966	-0.7830	1.1302	0.5714	-1.4697	-0.5408	2.1762	2.2199	-1.1270	-1.8905	2.0509	2.6357	-0.9448	-1.9226	-0.2553	
-0.1333	 6.90817013011948E-0004	-0.3327	-0.7099	0.9482	-1.9830	-1.4626	-2.3898	-3.0622	-0.1325	0.2555	-1.7335	-0.8544	0.2476	-0.7899	0.6997	0.2876	-1.1634	-0.3327	1.4724	1.5618	-0.8044	-1.5462	1.4759	1.9669	-0.8126	-1.6443	-0.3163	-0.6609	0.9210	-2.0125	-1.4305	-2.3489	-3.0438	-0.1433	0.2320	-1.7407	-0.8472	0.2553	-0.7945	0.6570	0.2556	-1.1464	-0.3190	1.4610	1.5363	-0.8202	-1.5483	1.5036	1.9854	-0.8429	-1.6655	-0.2660	
-0.0667	 2.51297070008629E-0004	-0.1039	-0.9056	0.7671	-1.9804	-0.9193	-1.7567	-2.7916	-0.2255	0.0046	-1.7144	-0.6428	0.4106	-0.8022	0.2054	-0.0448	-0.8313	-0.1039	0.7412	0.8578	-0.5015	-1.2017	0.9299	1.3114	-0.7200	-1.3921	-0.3128	-0.8766	0.7511	-1.9982	-0.9001	-1.7320	-2.7804	-0.2320	-0.0095	-1.7186	-0.6385	0.4153	-0.8047	0.1795	-0.0642	-0.8207	-0.0955	0.7337	0.8418	-0.5111	-1.2030	0.9465	1.3223	-0.7383	-1.4049	-0.2824	
0.0000	 2.81965676946202E-0005	0.1251	-1.1070	0.5886	-1.9752	-0.3787	-1.1244	-2.5210	-0.3171	-0.2447	-1.6974	-0.4344	0.5741	-0.8133	-0.2891	-0.3786	-0.4993	0.1251	0.0064	0.1506	-0.1983	-0.8575	0.3785	0.6499	-0.6247	-1.1386	-0.3150	-1.0974	0.5831	-1.9807	-0.3727	-1.1162	-2.5173	-0.3191	-0.2495	-1.6990	-0.4330	0.5761	-0.8138	-0.2982	-0.3855	-0.4952	0.1286	0.0037	0.1445	-0.2014	-0.8574	0.3835	0.6530	-0.6306	-1.1426	-0.3051	
0.0667	 2.81491947594656E-0005	0.3537	-1.3132	0.4131	-1.9664	0.1569	-0.4958	-2.2520	-0.4065	-0.4915	-1.6834	-0.2294	0.7374	-0.8226	-0.7831	-0.7139	-0.1682	0.3537	-0.7270	-0.5562	0.1047	-0.5133	-0.1760	-0.0154	-0.5265	-0.8837	-0.3241	-1.3230	0.4186	-1.9597	0.1502	-0.5044	-2.2557	-0.4041	-0.4874	-1.6824	-0.2308	0.7369	-0.8212	-0.7758	-0.7085	-0.1703	0.3520	-0.7259	-0.5522	0.1082	-0.5119	-0.1825	-0.0205	-0.5200	-0.8786	-0.3347	
0.1333	 3.27996753744445E-0004	0.5828	-1.5257	0.2397	-1.9549	0.6890	0.1306	-1.9826	-0.4949	-0.7380	-1.6720	-0.0269	0.9018	-0.8307	-1.2771	-1.0509	0.1632	0.5828	-1.4615	-1.2635	0.4081	-0.1688	-0.7359	-0.6856	-0.4249	-0.6263	-0.3396	-1.5577	0.2581	-1.9335	0.6650	0.0999	-1.9951	-0.4870	-0.7224	-1.6680	-0.0329	0.8983	-0.8263	-1.2498	-1.0315	0.1551	0.5762	-1.4545	-1.2479	0.4198	-0.1652	-0.7569	-0.7001	-0.4036	-0.6102	-0.3752	
0.2000	 9.17326276691751E-0004	0.8118	-1.7446	0.0683	-1.9400	1.2155	0.7517	-1.7133	-0.5814	-0.9827	-1.6634	0.1728	1.0662	-0.8376	-1.7693	-1.3893	0.4935	0.8118	-2.1918	-1.9675	0.7125	0.1756	-1.2983	-1.3572	-0.3203	-0.3667	-0.3623	-1.7971	0.0995	-1.9046	1.1745	0.6995	-1.7344	-0.5681	-0.9558	-1.6571	0.1618	1.0599	-0.8301	-1.7231	-1.3559	0.4791	0.8000	-2.1778	-1.9388	0.7311	0.1807	-1.3310	-1.3787	-0.2852	-0.3408	-0.4214	
