Arquivo: c:\arq\medidas\BBA_2205_071750\BBA_AMP04B_V.dat
Data: 2205	 Hora:  0741
Comentário: 
NomeParametro	 ValorParametro
Nmedias	5
PausaCorretora	3000
PausaShunt	2000
PausaLeitura	500
NumCiclos	3
 NPassosCor	7
DeltaShunt	3.00
TetaIni	-0.10
TetaFim	0.10
I[mA]	 145.8
ACV11A	DeltaPos^2	AMP04B	AMP01B_0	AMP02A_0	AMP02B_0	AMP03A_0	AMP03B_0	AMP03C_0	AMP04A_0	AMP04B_0	AMP05A_0	AMP05B_0	AMP06A_0	AMP06B_0	AMP07A_0	AMP07B_0	AMP08A_0	AMP08B_0	AMP09A_0	AMP09B_0	AMP10A_0	AMP10B_0	AMU11A_0	AMU11B_0	AMP12A_0	AMP12B_0	AMP01A_0	AMP01B_1	AMP02A_1	AMP02B_1	AMP03A_1	AMP03B_1	AMP03C_1	AMP04A_1	AMP04B_1	AMP05A_1	AMP05B_1	AMP06A_1	AMP06B_1	AMP07A_1	AMP07B_1	AMP08A_1	AMP08B_1	AMP09A_1	AMP09B_1	AMP10A_1	AMP10B_1	AMU11A_1	AMU11B_1	AMP12A_1	AMP12B_1	AMP01A_1	
-0.1000	 2.32730863323270E-0004	-0.9969	-1.3486	-0.6625	0.4514	0.9571	2.3916	0.7237	0.3588	-0.9969	-0.1586	1.8014	1.8106	-0.3384	0.3525	-0.5664	0.5954	0.2656	0.7563	-0.1530	0.1912	-0.0949	0.1730	1.7937	1.5322	1.3245	0.8870	-1.3624	-0.6657	0.4635	0.9803	2.3837	0.6961	0.3451	-1.0125	-0.1831	1.8190	1.8275	-0.3248	0.3650	-0.5898	0.5832	0.2705	0.7721	-0.1534	0.1845	-0.1113	0.1568	1.8103	1.5484	1.3318	0.8885	
-0.0667	 9.85575301421480E-0005	-0.7726	-1.0210	-0.4652	0.4410	0.8181	2.3134	0.6511	0.3967	-0.7726	0.1723	1.5205	1.5771	-0.4923	0.2432	-0.2792	0.7276	0.1622	0.5093	-0.0860	0.3177	0.1334	0.4224	1.6996	1.3541	1.1050	0.6514	-1.0306	-0.4680	0.4486	0.8333	2.3089	0.6338	0.3883	-0.7824	0.1562	1.5321	1.5886	-0.4831	0.2512	-0.2946	0.7194	0.1653	0.5193	-0.0861	0.3133	0.1229	0.4119	1.7105	1.3648	1.1101	0.6526	
-0.0333	 1.95308325165796E-0005	-0.5440	-0.6866	-0.2648	0.4306	0.6770	2.2325	0.5772	0.4358	-0.5440	0.5087	1.2344	1.3390	-0.6491	0.1314	0.0129	0.8625	0.0572	0.2578	-0.0188	0.4454	0.3655	0.6762	1.6034	1.1726	0.8816	0.4113	-0.6916	-0.2665	0.4340	0.6841	2.2316	0.5704	0.4322	-0.5485	0.5012	1.2396	1.3445	-0.6451	0.1347	0.0062	0.8593	0.0588	0.2628	-0.0192	0.4435	0.3614	0.6717	1.6080	1.1774	0.8845	0.4127	
0.0000	 1.97587391834642E-0006	-0.3132	-0.3487	-0.0624	0.4205	0.5349	2.1509	0.5018	0.4747	-0.3132	0.8465	0.9453	1.0983	-0.8078	0.0176	0.3083	0.9989	-0.0478	0.0044	0.0476	0.5742	0.6001	0.9319	1.5060	0.9888	0.6557	0.1693	-0.3492	-0.0631	0.4194	0.5339	2.1535	0.5052	0.4761	-0.3128	0.8481	0.9446	1.0977	-0.8088	0.0165	0.3104	1.0003	-0.0476	0.0044	0.0474	0.5746	0.6020	0.9339	1.5042	0.9874	0.6560	0.1705	
0.0333	 4.71414146194039E-0005	-0.0815	-0.0098	0.1419	0.4109	0.3923	2.0678	0.4250	0.5134	-0.0815	1.1867	0.6555	0.8561	-0.9674	-0.0969	0.6054	1.1366	-0.1531	-0.2488	0.1143	0.7030	0.8359	1.1885	1.4080	0.8036	0.4284	-0.0743	-0.0054	0.1423	0.4048	0.3830	2.0739	0.4382	0.5200	-0.0757	1.1970	0.6482	0.8495	-0.9737	-0.1036	0.6161	1.1428	-0.1547	-0.2543	0.1140	0.7060	0.8443	1.1966	1.3999	0.7958	0.4260	-0.0734	
0.0667	 1.54771154379992E-0004	0.1502	0.3289	0.3458	0.4012	0.2497	1.9846	0.3475	0.5520	0.1502	1.5261	0.3645	0.6132	-1.1272	-0.2122	0.9029	1.2741	-0.2585	-0.5028	0.1804	0.8322	1.0717	1.4450	1.3102	0.6181	0.2006	-0.3186	0.3379	0.3472	0.3905	0.2322	1.9945	0.3715	0.5632	0.1615	1.5456	0.3509	0.6009	-1.1384	-0.2233	0.9220	1.2851	-0.2615	-0.5132	0.1798	0.8374	1.0865	1.4594	1.2959	0.6044	0.1956	-0.3178	
0.1000	 3.16696157628041E-0004	0.3810	0.6671	0.5488	0.3914	0.1075	1.9012	0.2703	0.5902	0.3810	1.8639	0.0738	0.3713	-1.2861	-0.3270	1.1988	1.4115	-0.3634	-0.7559	0.2461	0.9609	1.3069	1.7013	1.2130	0.4329	-0.0269	-0.5630	0.6807	0.5509	0.3768	0.0823	1.9147	0.3044	0.6066	0.3972	1.8915	0.0542	0.3530	-1.3024	-0.3430	1.2261	1.4265	-0.3681	-0.7719	0.2450	0.9683	1.3274	1.7218	1.1926	0.4133	-0.0342	-0.5623	
