Arquivo: c:\arq\medidas\BBA_2205_071750\BBA_AMP02B_V.dat
Data: 2205	 Hora:  0725
Comentário: 
NomeParametro	 ValorParametro
Nmedias	5
PausaCorretora	3000
PausaShunt	2000
PausaLeitura	500
NumCiclos	3
 NPassosCor	7
DeltaShunt	3.00
TetaIni	-0.10
TetaFim	0.10
I[mA]	 147.1
ACV09B	DeltaPos^2	AMP02B	AMP01B_0	AMP02A_0	AMP02B_0	AMP03A_0	AMP03B_0	AMP03C_0	AMP04A_0	AMP04B_0	AMP05A_0	AMP05B_0	AMP06A_0	AMP06B_0	AMP07A_0	AMP07B_0	AMP08A_0	AMP08B_0	AMP09A_0	AMP09B_0	AMP10A_0	AMP10B_0	AMU11A_0	AMU11B_0	AMP12A_0	AMP12B_0	AMP01A_0	AMP01B_1	AMP02A_1	AMP02B_1	AMP03A_1	AMP03B_1	AMP03C_1	AMP04A_1	AMP04B_1	AMP05A_1	AMP05B_1	AMP06A_1	AMP06B_1	AMP07A_1	AMP07B_1	AMP08A_1	AMP08B_1	AMP09A_1	AMP09B_1	AMP10A_1	AMP10B_1	AMU11A_1	AMU11B_1	AMP12A_1	AMP12B_1	AMP01A_1	
-0.1000	 3.97522883352973E-0004	1.0052	0.0799	0.4277	1.0052	1.2001	1.3827	-1.1779	-0.1046	-0.2578	1.2727	1.1259	0.9690	-1.4425	-0.9565	1.1261	1.6504	0.3863	0.2986	-0.7680	-0.0145	0.2708	0.8707	2.0503	1.2472	0.2857	-0.5658	0.1032	0.4485	1.0233	1.2276	1.3617	-1.2250	-0.1240	-0.2682	1.2679	1.1464	0.9778	-1.4537	-0.9775	1.1339	1.6633	0.4063	0.3206	-0.7964	-0.0330	0.2682	0.8795	2.0609	1.2455	0.2669	-0.5947	
-0.0667	 2.01110335962614E-0004	0.8098	-0.0600	0.2658	0.8098	0.9766	1.6338	-0.6268	0.0895	-0.2655	1.1459	1.0517	1.0014	-1.2366	-0.6352	0.8655	1.4385	0.2358	0.1884	-0.4928	0.1849	0.3834	0.8934	1.8680	1.1590	0.4074	-0.3222	-0.0428	0.2808	0.8231	0.9964	1.6187	-0.6603	0.0754	-0.2723	1.1435	1.0652	1.0069	-1.2449	-0.6501	0.8719	1.4477	0.2499	0.2032	-0.5129	0.1723	0.3820	0.9005	1.8748	1.1575	0.3937	-0.3430	
-0.0333	 6.69310066966285E-0005	0.6102	-0.2028	0.1006	0.6102	0.7481	1.8892	-0.0636	0.2870	-0.2728	1.0173	0.9756	1.0335	-1.0271	-0.3078	0.6008	1.2228	0.0822	0.0751	-0.2117	0.3889	0.4979	0.9162	1.6814	1.0696	0.5317	-0.0738	-0.1925	0.1100	0.6184	0.7593	1.8800	-0.0830	0.2795	-0.2759	1.0175	0.9822	1.0358	-1.0324	-0.3158	0.6050	1.2286	0.0903	0.0828	-0.2232	0.3824	0.4982	0.9218	1.6845	1.0668	0.5230	-0.0859	
0.0000	 7.39481456874393E-0006	0.4093	-0.3476	-0.0664	0.4093	0.5168	2.1464	0.5029	0.4867	-0.2794	0.8886	0.8979	1.0650	-0.8158	0.0220	0.3339	1.0049	-0.0728	-0.0391	0.0711	0.5944	0.6138	0.9393	1.4925	0.9792	0.6565	0.1765	-0.3436	-0.0630	0.4119	0.5196	2.1425	0.4977	0.4853	-0.2785	0.8913	0.8974	1.0643	-0.8183	0.0202	0.3366	1.0073	-0.0710	-0.0395	0.0683	0.5938	0.6156	0.9430	1.4918	0.9759	0.6529	0.1728	
0.0333	 2.13891045607431E-0005	0.2064	-0.4936	-0.2342	0.2064	0.2839	2.4040	1.0731	0.6877	-0.2857	0.7598	0.8187	1.0963	-0.6034	0.3534	0.0659	0.7855	-0.2291	-0.1549	0.3568	0.8016	0.7306	0.9623	1.3023	0.8875	0.7820	0.4293	-0.4966	-0.2364	0.2035	0.2780	2.4059	1.0818	0.6922	-0.2810	0.7647	0.8113	1.0925	-0.6026	0.3586	0.0665	0.7842	-0.2336	-0.1631	0.3632	0.8070	0.7340	0.9643	1.2977	0.8840	0.7838	0.4343	
0.0667	 1.14453847314201E-0004	0.0026	-0.6400	-0.4020	0.0026	0.0501	2.6602	1.6410	0.8888	-0.2911	0.6312	0.7390	1.1271	-0.3907	0.6848	-0.2026	0.5664	-0.3855	-0.2708	0.6422	1.0092	0.8477	0.9853	1.1110	0.7956	0.9084	0.6823	-0.6497	-0.4105	-0.0059	0.0354	2.6678	1.6643	0.8998	-0.2825	0.6388	0.7241	1.1197	-0.3869	0.6962	-0.2040	0.5615	-0.3966	-0.2869	0.6576	1.0207	0.8528	0.9857	1.1026	0.7915	0.9153	0.6960	
0.1000	 2.79134639887162E-0004	-0.2037	-0.7877	-0.5724	-0.2037	-0.1868	2.9192	2.2129	1.0931	-0.2960	0.5019	0.6574	1.1578	-0.1755	1.0203	-0.4742	0.3439	-0.5440	-0.3884	0.9313	1.2192	0.9667	1.0096	0.9165	0.7029	1.0361	0.9388	-0.8042	-0.5867	-0.2178	-0.2101	2.9324	2.2497	1.1099	-0.2836	0.5117	0.6355	1.1471	-0.1685	1.0383	-0.4774	0.3353	-0.5609	-0.4122	0.9556	1.2367	0.9730	1.0082	0.9041	0.6983	1.0484	0.9616	
