Arquivo: c:\arq\medidas\BBA_0105_072004\BBA_AMP06A_V.dat
Data: 0105	 Hora:  0752
Comentário: 
NomeParametro	 ValorParametro
Nmedias	5
PausaCorretora	3000
PausaShunt	2000
PausaLeitura	500
NumCiclos	3
 NPassosCor	7
DeltaShunt	3.00
TetaIni	-0.10
TetaFim	0.10
I[mA]	 119.9
ACV07A	DeltaPos^2	AMP06A	AMP01B_0	AMP02A_0	AMP02B_0	AMP03A_0	AMP03B_0	AMP03C_0	AMP04A_0	AMP04B_0	AMP05A_0	AMP05B_0	AMP06A_0	AMP06B_0	AMP07A_0	AMP07B_0	AMP08A_0	AMP08B_0	AMP09A_0	AMP09B_0	AMP10A_0	AMP10B_0	AMU11A_0	AMU11B_0	AMP12A_0	AMP12B_0	AMP01A_0	AMP01B_1	AMP02A_1	AMP02B_1	AMP03A_1	AMP03B_1	AMP03C_1	AMP04A_1	AMP04B_1	AMP05A_1	AMP05B_1	AMP06A_1	AMP06B_1	AMP07A_1	AMP07B_1	AMP08A_1	AMP08B_1	AMP09A_1	AMP09B_1	AMP10A_1	AMP10B_1	AMU11A_1	AMU11B_1	AMP12A_1	AMP12B_1	AMP01A_1	
-0.1000	 3.48011022599794E-0004	0.5289	0.6503	0.7008	0.8108	0.7100	1.4282	-0.8074	0.1577	0.1984	1.8386	0.5144	0.5289	-1.5922	-0.9965	0.9201	1.6067	0.5944	0.6594	-0.9925	-0.0216	0.7104	1.4189	1.6849	0.7886	-0.0723	-0.8475	0.6733	0.7115	0.8009	0.6863	1.4330	-0.7871	0.1703	0.2189	1.8618	0.4860	0.5098	-1.6126	-1.0200	0.9521	1.6261	0.5948	0.6489	-1.0021	-0.0197	0.7310	1.4437	1.6666	0.7676	-0.0867	-0.8570	
-0.0667	 1.90625928289744E-0004	0.7107	0.3395	0.4646	0.6900	0.6558	1.6435	-0.4019	0.2559	0.0395	1.5321	0.6550	0.7107	-1.3448	-0.6769	0.7289	1.4163	0.3909	0.4509	-0.6631	0.1681	0.6766	1.2675	1.6294	0.8522	0.1543	-0.5308	0.3560	0.4724	0.6829	0.6383	1.6468	-0.3873	0.2649	0.0546	1.5494	0.6342	0.6964	-1.3600	-0.6942	0.7529	1.4305	0.3911	0.4427	-0.6703	0.1693	0.6921	1.2859	1.6161	0.8357	0.1438	-0.5377	
-0.0333	 6.99019183478640E-0005	0.8941	0.0242	0.2244	0.5668	0.5996	1.8626	0.0123	0.3564	-0.1205	1.2208	0.7962	0.8941	-1.0937	-0.3519	0.5355	1.2227	0.1834	0.2381	-0.3275	0.3612	0.6432	1.1138	1.5724	0.9153	0.3844	-0.2090	0.0343	0.2292	0.5626	0.5896	1.8640	0.0203	0.3615	-0.1112	1.2317	0.7838	0.8854	-1.1030	-0.3625	0.5501	1.2318	0.1841	0.2337	-0.3322	0.3617	0.6530	1.1252	1.5644	0.9056	0.3780	-0.2133	
0.0000	 8.25968971356538E-0006	1.0788	-0.2941	-0.0191	0.4420	0.5427	2.0824	0.4293	0.4582	-0.2823	0.9063	0.9374	1.0788	-0.8399	-0.0238	0.3404	1.0275	-0.0255	0.0227	0.0105	0.5557	0.6103	0.9588	1.5145	0.9790	0.6162	0.1147	-0.2909	-0.0172	0.4412	0.5398	2.0824	0.4311	0.4595	-0.2791	0.9102	0.9335	1.0758	-0.8433	-0.0277	0.3455	1.0306	-0.0250	0.0217	0.0084	0.5558	0.6138	0.9635	1.5121	0.9752	0.6141	0.1132	
0.0333	 8.28062592770153E-0006	1.2633	-0.6142	-0.2627	0.3167	0.4851	2.3032	0.8475	0.5608	-0.4443	0.5920	1.0792	1.2633	-0.5852	0.3043	0.1455	0.8310	-0.2359	-0.1937	0.3505	0.7515	0.5778	0.8040	1.4554	1.0414	0.8480	0.4399	-0.6179	-0.2639	0.3194	0.4896	2.3011	0.8425	0.5581	-0.4469	0.5891	1.0840	1.2658	-0.5830	0.3071	0.1411	0.8287	-0.2353	-0.1912	0.3509	0.7509	0.5750	0.8015	1.4585	1.0443	0.8500	0.4410	
0.0667	 6.95569416405631E-0005	1.4468	-0.9340	-0.5069	0.1912	0.4273	2.5227	1.2660	0.6636	-0.6056	0.2771	1.2202	1.4468	-0.3306	0.6325	-0.0491	0.6352	-0.4465	-0.4114	0.6910	0.9477	0.5462	0.6495	1.3956	1.1037	1.0796	0.7658	-0.9443	-0.5105	0.1969	0.4391	2.5187	1.2538	0.6566	-0.6140	0.2671	1.2334	1.4557	-0.3226	0.6419	-0.0629	0.6274	-0.4458	-0.4055	0.6938	0.9464	0.5375	0.6399	1.4040	1.1125	1.0857	0.7692	
0.1000	 1.88224047385918E-0004	1.6298	-1.2524	-0.7505	0.0647	0.3692	2.7411	1.6820	0.7668	-0.7665	-0.0378	1.3603	1.6298	-0.0767	0.9598	-0.2426	0.4401	-0.6572	-0.6298	1.0314	1.1444	0.5155	0.4956	1.3347	1.1650	1.3109	1.0915	-1.2691	-0.7569	0.0739	0.3883	2.7356	1.6637	0.7558	-0.7808	-0.0545	1.3821	1.6439	-0.0630	0.9760	-0.2654	0.4268	-0.6565	-0.6207	1.0363	1.1430	0.5009	0.4792	1.3483	1.1803	1.3209	1.0977	
