Arquivo: c:\arq\medidas\BBA_0105_072004\BBA_AMP06B_V.dat
Data: 0105	 Hora:  0755
Comentário: 
NomeParametro	 ValorParametro
Nmedias	5
PausaCorretora	3000
PausaShunt	2000
PausaLeitura	500
NumCiclos	3
 NPassosCor	7
DeltaShunt	3.00
TetaIni	-0.10
TetaFim	0.10
I[mA]	 119.6
ACV09B	DeltaPos^2	AMP06B	AMP01B_0	AMP02A_0	AMP02B_0	AMP03A_0	AMP03B_0	AMP03C_0	AMP04A_0	AMP04B_0	AMP05A_0	AMP05B_0	AMP06A_0	AMP06B_0	AMP07A_0	AMP07B_0	AMP08A_0	AMP08B_0	AMP09A_0	AMP09B_0	AMP10A_0	AMP10B_0	AMU11A_0	AMU11B_0	AMP12A_0	AMP12B_0	AMP01A_0	AMP01B_1	AMP02A_1	AMP02B_1	AMP03A_1	AMP03B_1	AMP03C_1	AMP04A_1	AMP04B_1	AMP05A_1	AMP05B_1	AMP06A_1	AMP06B_1	AMP07A_1	AMP07B_1	AMP08A_1	AMP08B_1	AMP09A_1	AMP09B_1	AMP10A_1	AMP10B_1	AMU11A_1	AMU11B_1	AMP12A_1	AMP12B_1	AMP01A_1	
-0.1000	 2.65798941671287E-0004	-1.4564	0.1038	0.4540	1.0328	1.2295	1.3398	-1.2155	-0.1181	-0.2556	1.2883	1.1601	0.9836	-1.4564	-0.9851	1.1320	1.6653	0.4161	0.3371	-0.8032	-0.0397	0.2603	0.8732	2.0730	1.2576	0.2663	-0.6013	0.1299	0.4711	1.0360	1.2230	1.3302	-1.2297	-0.1182	-0.2391	1.3144	1.1421	0.9661	-1.4730	-1.0104	1.1545	1.6831	0.4272	0.3447	-0.8249	-0.0495	0.2693	0.8903	2.0701	1.2471	0.2486	-0.6225	
-0.0667	 1.03675336638227E-0004	-1.2507	-0.0328	0.2952	0.8398	1.0075	1.5852	-0.6757	0.0697	-0.2687	1.1561	1.0931	1.0197	-1.2507	-0.6656	0.8705	1.4542	0.2682	0.2305	-0.5315	0.1580	0.3720	0.8967	1.8921	1.1695	0.3853	-0.3620	-0.0161	0.3060	0.8418	1.0036	1.5795	-0.6842	0.0697	-0.2583	1.1726	1.0820	1.0088	-1.2610	-0.6812	0.8849	1.4654	0.2749	0.2349	-0.5447	0.1520	0.3779	0.9076	1.8902	1.1636	0.3743	-0.3754	
-0.0333	 1.47614375011742E-0005	-1.0418	-0.1721	0.1335	0.6427	0.7807	1.8345	-0.1248	0.2612	-0.2818	1.0223	1.0242	1.0563	-1.0418	-0.3405	0.6056	1.2393	0.1171	0.1211	-0.2544	0.3593	0.4863	0.9206	1.7074	1.0802	0.5064	-0.1184	-0.1654	0.1378	0.6434	0.7789	1.8330	-0.1276	0.2612	-0.2775	1.0288	1.0199	1.0521	-1.0455	-0.3458	0.6110	1.2433	0.1198	0.1226	-0.2593	0.3572	0.4885	0.9246	1.7072	1.0780	0.5023	-0.1236	
0.0000	 7.49215939869867E-0006	-0.8307	-0.3131	-0.0300	0.4437	0.5512	2.0857	0.4307	0.4545	-0.2943	0.8881	0.9533	1.0921	-0.8307	-0.0125	0.3379	1.0220	-0.0353	0.0097	0.0251	0.5625	0.6014	0.9444	1.5203	0.9893	0.6284	0.1275	-0.3166	-0.0327	0.4430	0.5514	2.0878	0.4342	0.4551	-0.2964	0.8844	0.9564	1.0948	-0.8276	-0.0075	0.3346	1.0189	-0.0374	0.0081	0.0288	0.5651	0.6000	0.9418	1.5210	0.9911	0.6315	0.1308	
0.0333	 8.19190117685308E-0005	-0.6186	-0.4552	-0.1942	0.2432	0.3196	2.3371	0.9888	0.6492	-0.3061	0.7536	0.8814	1.1276	-0.6186	0.3163	0.0691	0.8030	-0.1890	-0.1020	0.3069	0.7675	0.7174	0.9683	1.3313	0.8976	0.7511	0.3752	-0.4689	-0.2034	0.2410	0.3214	2.3434	0.9984	0.6502	-0.3143	0.7402	0.8912	1.1369	-0.6090	0.3316	0.0572	0.7936	-0.1957	-0.1070	0.3194	0.7736	0.7129	0.9595	1.3333	0.9042	0.7613	0.3870	
0.0667	 2.34496062507742E-0004	-0.4060	-0.5982	-0.3592	0.0414	0.0872	2.5878	1.5469	0.8446	-0.3176	0.6197	0.8085	1.1628	-0.4060	0.6455	-0.2000	0.5842	-0.3435	-0.2148	0.5894	0.9728	0.8343	0.9924	1.1414	0.8059	0.8744	0.6242	-0.6216	-0.3751	0.0379	0.0912	2.5981	1.5619	0.8458	-0.3320	0.5963	0.8253	1.1787	-0.3899	0.6710	-0.2204	0.5675	-0.3545	-0.2227	0.6103	0.9827	0.8263	0.9767	1.1444	0.8160	0.8911	0.6438	
0.1000	 4.70438533431874E-0004	-0.1939	-0.7405	-0.5240	-0.1600	-0.1452	2.8375	2.0999	1.0403	-0.3283	0.4865	0.7355	1.1974	-0.1939	0.9744	-0.4687	0.3658	-0.4970	-0.3275	0.8712	1.1775	0.9510	1.0172	0.9511	0.7140	0.9975	0.8726	-0.7739	-0.5465	-0.1650	-0.1391	2.8521	2.1212	1.0417	-0.3490	0.4529	0.7593	1.2198	-0.1714	1.0096	-0.4975	0.3422	-0.5124	-0.3385	0.9011	1.1913	0.9399	0.9950	0.9550	0.7287	1.0214	0.9007	
