Arquivo: c:\arq\medidas\BBA_0105_072004\BBA_AMP02B_H.dat
Data: 0105	 Hora:  0726
Comentário: 
NomeParametro	 ValorParametro
Nmedias	5
PausaCorretora	3000
PausaShunt	2000
PausaLeitura	500
NumCiclos	3
 NPassosCor	7
DeltaShunt	3.00
TetaIni	-0.10
TetaFim	0.10
I[mA]	 146.1
ACH07A	DeltaPos^2	AMP02B	AMP01B_0	AMP02A_0	AMP02B_0	AMP03A_0	AMP03B_0	AMP03C_0	AMP04A_0	AMP04B_0	AMP05A_0	AMP05B_0	AMP06A_0	AMP06B_0	AMP07A_0	AMP07B_0	AMP08A_0	AMP08B_0	AMP09A_0	AMP09B_0	AMP10A_0	AMP10B_0	AMU11A_0	AMU11B_0	AMP12A_0	AMP12B_0	AMP01A_0	AMP01B_1	AMP02A_1	AMP02B_1	AMP03A_1	AMP03B_1	AMP03C_1	AMP04A_1	AMP04B_1	AMP05A_1	AMP05B_1	AMP06A_1	AMP06B_1	AMP07A_1	AMP07B_1	AMP08A_1	AMP08B_1	AMP09A_1	AMP09B_1	AMP10A_1	AMP10B_1	AMU11A_1	AMU11B_1	AMP12A_1	AMP12B_1	AMP01A_1	
-0.1000	 5.99009039107958E-0003	-2.5365	0.1141	0.1952	-2.5365	0.3869	-0.1042	-1.9957	-0.2771	-0.5217	-2.1682	-0.4663	1.1195	-0.5366	-1.7381	-1.9521	-0.0799	0.8331	-0.4561	-0.7125	-0.3556	-0.5797	1.0793	1.1030	-1.1574	-1.4054	0.9612	0.0451	0.2322	-2.5104	0.3744	-0.1506	-2.0283	-0.3274	-0.5360	-2.0756	-0.4058	1.0320	-0.6016	-1.5879	-1.8107	-0.1663	0.7415	-0.3390	-0.5721	-0.4001	-0.6557	1.0968	1.1525	-1.1480	-1.4332	0.8636	
-0.0667	 4.64460440921183E-0003	-2.3480	-0.3031	0.3541	-2.3480	0.1210	-0.4514	-2.1566	-0.2632	-0.3971	-2.0807	-0.5020	0.9753	-0.5777	-1.3494	-1.5150	-0.1785	0.6536	-0.3571	-0.4979	-0.2909	-0.6282	0.8460	0.9459	-0.9701	-1.2937	0.5330	-0.3638	0.3866	-2.3256	0.1106	-0.4919	-2.1850	-0.3078	-0.4098	-1.9988	-0.4488	0.8983	-0.6345	-1.2172	-1.3904	-0.2548	0.5728	-0.2541	-0.3740	-0.3305	-0.6950	0.8620	0.9900	-0.9617	-1.3180	0.4477	
-0.0333	 3.44370804135202E-0003	-2.1574	-0.7253	0.5144	-2.1574	-0.1469	-0.8011	-2.3186	-0.2499	-0.2722	-1.9913	-0.5372	0.8293	-0.6195	-0.9565	-1.0727	-0.2785	0.4713	-0.2581	-0.2814	-0.2255	-0.6774	0.6088	0.7858	-0.7809	-1.1800	0.0990	-0.7769	0.5423	-2.1382	-0.1558	-0.8357	-2.3429	-0.2879	-0.2829	-1.9212	-0.4919	0.7633	-0.6681	-0.8420	-0.9648	-0.3439	0.4019	-0.1692	-0.1747	-0.2595	-0.7351	0.6231	0.8246	-0.7732	-1.2011	0.0262	
0.0000	 2.41326696493823E-0003	-1.9656	-1.1492	0.6746	-1.9656	-0.4171	-1.1526	-2.4802	-0.2360	-0.1465	-1.9026	-0.5735	0.6831	-0.6608	-0.5613	-0.6279	-0.3778	0.2891	-0.1596	-0.0651	-0.1590	-0.7259	0.3696	0.6244	-0.5899	-1.0661	-0.3370	-1.1915	0.6984	-1.9499	-0.4239	-1.1805	-2.5003	-0.2677	-0.1552	-1.8442	-0.5359	0.6275	-0.7014	-0.4657	-0.5381	-0.4326	0.2309	-0.0845	0.0247	-0.1881	-0.7746	0.3825	0.6580	-0.5839	-1.0841	-0.3979	
0.0333	 1.55586360322983E-0003	-1.7727	-1.5741	0.8357	-1.7727	-0.6872	-1.5034	-2.6426	-0.2224	-0.0206	-1.8136	-0.6103	0.5359	-0.7025	-0.1649	-0.1813	-0.4775	0.1053	-0.0619	0.1515	-0.0925	-0.7747	0.1279	0.4607	-0.3983	-0.9505	-0.7760	-1.6079	0.8550	-1.7597	-0.6930	-1.5262	-2.6586	-0.2476	-0.0270	-1.7666	-0.5800	0.4913	-0.7346	-0.0883	-0.1095	-0.5216	0.0586	-0.0015	0.2242	-0.1152	-0.8131	0.1384	0.4879	-0.3929	-0.9647	-0.8254	
0.0667	 8.84986858505927E-0004	-1.5791	-1.9994	0.9967	-1.5791	-0.9588	-1.8549	-2.8048	-0.2084	0.1058	-1.7252	-0.6473	0.3887	-0.7439	0.2312	0.2651	-0.5771	-0.0790	0.0340	0.3669	-0.0249	-0.8226	-0.1157	0.2945	-0.2057	-0.8343	-1.2170	-2.0245	1.0119	-1.5687	-0.9631	-1.8722	-2.8165	-0.2266	0.1015	-1.6900	-0.6253	0.3553	-0.7672	0.2892	0.3190	-0.6098	-0.1135	0.0810	0.4224	-0.0420	-0.8515	-0.1069	0.3165	-0.2013	-0.8452	-1.2534	
0.1000	 3.98009296369065E-0004	-1.3852	-2.4218	1.1576	-1.3852	-1.2294	-2.2039	-2.9658	-0.1930	0.2320	-1.6383	-0.6859	0.2421	-0.7844	0.6254	0.7091	-0.6758	-0.2623	0.1291	0.5806	0.0433	-0.8698	-0.3601	0.1274	-0.0137	-0.7182	-1.6560	-2.4374	1.1680	-1.3782	-1.2321	-2.2154	-2.9737	-0.2053	0.2294	-1.6148	-0.6711	0.2200	-0.7994	0.6642	0.7448	-0.6975	-0.2850	0.1613	0.6188	0.0316	-0.8890	-0.3532	0.1434	-0.0101	-0.7249	-1.6801	
