Arquivo: c:\arq\medidas\BBA_0105_072004\BBA_AMP02A_V.dat
Data: 0105	 Hora:  0724
Comentário: 
NomeParametro	 ValorParametro
Nmedias	5
PausaCorretora	3000
PausaShunt	2000
PausaLeitura	500
NumCiclos	3
 NPassosCor	7
DeltaShunt	3.00
TetaIni	-0.10
TetaFim	0.10
I[mA]	 146.2
ACV07B	DeltaPos^2	AMP02A	AMP01B_0	AMP02A_0	AMP02B_0	AMP03A_0	AMP03B_0	AMP03C_0	AMP04A_0	AMP04B_0	AMP05A_0	AMP05B_0	AMP06A_0	AMP06B_0	AMP07A_0	AMP07B_0	AMP08A_0	AMP08B_0	AMP09A_0	AMP09B_0	AMP10A_0	AMP10B_0	AMU11A_0	AMU11B_0	AMP12A_0	AMP12B_0	AMP01A_0	AMP01B_1	AMP02A_1	AMP02B_1	AMP03A_1	AMP03B_1	AMP03C_1	AMP04A_1	AMP04B_1	AMP05A_1	AMP05B_1	AMP06A_1	AMP06B_1	AMP07A_1	AMP07B_1	AMP08A_1	AMP08B_1	AMP09A_1	AMP09B_1	AMP10A_1	AMP10B_1	AMU11A_1	AMU11B_1	AMP12A_1	AMP12B_1	AMP01A_1	
-0.1000	 5.12723932981821E-0004	-0.7700	-1.4248	-0.7700	0.2932	0.7550	2.5253	1.1166	0.5189	-0.9301	-0.1504	1.6535	1.7598	-0.2256	0.5694	-0.6786	0.2533	-0.5501	-0.3411	0.9786	1.0050	0.2273	0.2191	1.6377	1.4425	1.3958	1.0554	-1.4578	-0.7904	0.2743	0.7363	2.5527	1.1710	0.5372	-0.9347	-0.1689	1.6513	1.7676	-0.2027	0.6021	-0.7088	0.2304	-0.5627	-0.3464	1.0035	1.0157	0.2137	0.1962	1.6455	1.4593	1.4180	1.0808	
-0.0667	 2.81093846631032E-0004	-0.5517	-1.0878	-0.5517	0.3232	0.6699	2.4030	0.9399	0.5155	-0.7208	0.1807	1.4077	1.5375	-0.4085	0.4053	-0.3619	0.4871	-0.4028	-0.2487	0.6977	0.8806	0.3538	0.4494	1.5863	1.2931	1.1648	0.7840	-1.1124	-0.5669	0.3093	0.6567	2.4238	0.9795	0.5292	-0.7247	0.1665	1.4066	1.5435	-0.3915	0.4293	-0.3843	0.4701	-0.4119	-0.2520	0.7161	0.8881	0.3438	0.4319	1.5920	1.3057	1.1819	0.8027	
-0.0333	 1.02965664956230E-0004	-0.3292	-0.7435	-0.3292	0.3539	0.5836	2.2779	0.7593	0.5129	-0.5075	0.5175	1.1569	1.3103	-0.5949	0.2379	-0.0394	0.7254	-0.2531	-0.1549	0.4119	0.7536	0.4823	0.6835	1.5332	1.1404	0.9299	0.5075	-0.7589	-0.3388	0.3455	0.5760	2.2911	0.7831	0.5200	-0.5103	0.5084	1.1571	1.3147	-0.5844	0.2521	-0.0530	0.7150	-0.2582	-0.1561	0.4227	0.7581	0.4761	0.6730	1.5371	1.1477	0.9400	0.5189	
0.0000	 1.41397457024701E-0005	-0.1043	-0.3952	-0.1043	0.3853	0.4967	2.1503	0.5759	0.5085	-0.2918	0.8565	0.9036	1.0808	-0.7838	0.0675	0.2867	0.9665	-0.1016	-0.0606	0.1233	0.6254	0.6123	0.9202	1.4794	0.9850	0.6913	0.2282	-0.4008	-0.1081	0.3826	0.4951	2.1565	0.5838	0.5110	-0.2940	0.8525	0.9048	1.0833	-0.7800	0.0724	0.2819	0.9630	-0.1027	-0.0598	0.1268	0.6263	0.6100	0.9161	1.4813	0.9883	0.6955	0.2326	
0.0333	 1.09443219236501E-0005	0.1224	-0.0451	0.1224	0.4170	0.4090	2.0221	0.3914	0.5047	-0.0751	1.1982	0.6492	0.8489	-0.9739	-0.1038	0.6153	1.2088	0.0508	0.0336	-0.1671	0.4969	0.7439	1.1578	1.4250	0.8282	0.4511	-0.0524	-0.0412	0.1246	0.4199	0.4134	2.0205	0.3828	0.5014	-0.0759	1.1994	0.6514	0.8496	-0.9765	-0.1090	0.6191	1.2125	0.0534	0.0364	-0.1716	0.4949	0.7457	1.1606	1.4247	0.8268	0.4485	-0.0556	
0.0667	 9.46515984691373E-0005	0.3498	0.3057	0.3498	0.4492	0.3215	1.8922	0.2047	0.5003	0.1426	1.5403	0.3933	0.6165	-1.1647	-0.2772	0.9452	1.4517	0.2038	0.1287	-0.4590	0.3679	0.8761	1.3960	1.3701	0.6706	0.2093	-0.3350	0.3192	0.3576	0.4576	0.3319	1.8831	0.1801	0.4918	0.1427	1.5464	0.3964	0.6150	-1.1737	-0.2918	0.9573	1.4617	0.2105	0.1340	-0.4712	0.3623	0.8818	1.4056	1.3680	0.6648	0.2005	-0.3452	
0.1000	 2.74367904517909E-0004	0.5770	0.6576	0.5770	0.4814	0.2337	1.7618	0.0179	0.4962	0.3600	1.8817	0.1363	0.3836	-1.3553	-0.4501	1.2748	1.6947	0.3572	0.2243	-0.7519	0.2381	1.0082	1.6350	1.3164	0.5130	-0.0325	-0.6185	0.6803	0.5906	0.4955	0.2503	1.7446	-0.0234	0.4822	0.3612	1.8933	0.1402	0.3799	-1.3714	-0.4750	1.2963	1.7120	0.3679	0.2316	-0.7716	0.2290	1.0180	1.6512	1.3124	0.5026	-0.0481	-0.6363	
