Arquivo: c:\arq\medidas\BBA_0105_072004\BBA_AMP12A_V.dat
Data: 0105	 Hora:  0829
Comentário: 
NomeParametro	 ValorParametro
Nmedias	5
PausaCorretora	3000
PausaShunt	2000
PausaLeitura	500
NumCiclos	3
 NPassosCor	7
DeltaShunt	3.00
TetaIni	-0.10
TetaFim	0.10
I[mA]	  33.8
ACV09A	DeltaPos^2	AMP12A	AMP01B_0	AMP02A_0	AMP02B_0	AMP03A_0	AMP03B_0	AMP03C_0	AMP04A_0	AMP04B_0	AMP05A_0	AMP05B_0	AMP06A_0	AMP06B_0	AMP07A_0	AMP07B_0	AMP08A_0	AMP08B_0	AMP09A_0	AMP09B_0	AMP10A_0	AMP10B_0	AMU11A_0	AMU11B_0	AMP12A_0	AMP12B_0	AMP01A_0	AMP01B_1	AMP02A_1	AMP02B_1	AMP03A_1	AMP03B_1	AMP03C_1	AMP04A_1	AMP04B_1	AMP05A_1	AMP05B_1	AMP06A_1	AMP06B_1	AMP07A_1	AMP07B_1	AMP08A_1	AMP08B_1	AMP09A_1	AMP09B_1	AMP10A_1	AMP10B_1	AMU11A_1	AMU11B_1	AMP12A_1	AMP12B_1	AMP01A_1	
-0.1000	 2.77227829301089E-0004	0.3559	-0.1605	-0.1984	-0.2416	-0.4951	2.7766	2.1590	1.1749	0.0959	1.0815	0.1744	0.7622	-0.4454	0.8450	0.0535	0.5857	-0.7380	-0.9178	0.5149	1.1134	1.2976	1.5041	0.7076	0.3559	0.6236	0.5090	-0.1338	-0.1835	-0.2453	-0.5107	2.7733	2.1604	1.1811	0.1156	1.1087	0.1492	0.7425	-0.4568	0.8381	0.0761	0.5955	-0.7474	-0.9392	0.5215	1.1246	1.3166	1.5217	0.6867	0.3374	0.6061	0.4922	
-0.0667	 1.09982345037555E-0004	0.5617	-0.2143	-0.1475	-0.0256	-0.1662	2.5637	1.6237	0.9478	-0.0311	1.0172	0.4217	0.8705	-0.5640	0.5814	0.1441	0.7234	-0.5156	-0.6230	0.3679	0.9426	1.0787	1.3296	0.9678	0.5617	0.6298	0.3942	-0.1974	-0.1383	-0.0281	-0.1763	2.5617	1.6248	0.9522	-0.0186	1.0341	0.4059	0.8578	-0.5710	0.5771	0.1582	0.7294	-0.5218	-0.6363	0.3725	0.9498	1.0907	1.3407	0.9546	0.5502	0.6190	0.3832	
-0.0333	 1.48181777984327E-0005	0.7706	-0.2696	-0.0966	0.1933	0.1668	2.3474	1.0794	0.7182	-0.1596	0.9517	0.6720	0.9800	-0.6834	0.3151	0.2344	0.8622	-0.2905	-0.3243	0.2198	0.7695	0.8563	1.1529	1.2305	0.7706	0.6372	0.2786	-0.2633	-0.0931	0.1925	0.1632	2.3465	1.0795	0.7196	-0.1550	0.9579	0.6660	0.9755	-0.6860	0.3133	0.2395	0.8643	-0.2925	-0.3292	0.2213	0.7723	0.8605	1.1568	1.2257	0.7664	0.6331	0.2745	
0.0000	 6.47096671839291E-0006	0.9818	-0.3261	-0.0461	0.4132	0.5031	2.1286	0.5280	0.4863	-0.2894	0.8850	0.9244	1.0914	-0.8034	0.0460	0.3253	1.0015	-0.0630	-0.0229	0.0694	0.5947	0.6308	0.9743	1.4958	0.9818	0.6458	0.1629	-0.3303	-0.0481	0.4139	0.5057	2.1288	0.5275	0.4857	-0.2922	0.8808	0.9283	1.0946	-0.8017	0.0471	0.3218	1.0004	-0.0612	-0.0196	0.0682	0.5929	0.6280	0.9716	1.4989	0.9845	0.6484	0.1654	
0.0333	 8.20460237359410E-0005	1.1942	-0.3844	0.0040	0.6342	0.8410	1.9080	-0.0267	0.2531	-0.4198	0.8187	1.1783	1.2031	-0.9242	-0.2240	0.4162	1.1416	0.1657	0.2808	-0.0810	0.4190	0.4043	0.7934	1.7623	1.1942	0.6547	0.0475	-0.3989	-0.0040	0.6363	0.8495	1.9095	-0.0282	0.2497	-0.4301	0.8039	1.1917	1.2139	-0.9179	-0.2201	0.4038	1.1368	0.1711	0.2925	-0.0849	0.4127	0.3938	0.7837	1.7736	1.2045	0.6640	0.0568	
0.0667	 2.40671478728019E-0004	1.4061	-0.4434	0.0536	0.8549	1.1778	1.6871	-0.5817	0.0204	-0.5495	0.7523	1.4312	1.3145	-1.0445	-0.4941	0.5070	1.2819	0.3939	0.5841	-0.2308	0.2437	0.1773	0.6115	2.0279	1.4061	0.6640	-0.0673	-0.4685	0.0399	0.8583	1.1922	1.6897	-0.5838	0.0144	-0.5678	0.7268	1.4542	1.3328	-1.0337	-0.4874	0.4857	1.2724	0.4031	0.6037	-0.2371	0.2330	0.1595	0.5950	2.0469	1.4230	0.6802	-0.0510	
0.1000	 4.85936788930430E-0004	1.6182	-0.5039	0.1029	1.0753	1.5133	1.4650	-1.1363	-0.2122	-0.6796	0.6857	1.6839	1.4254	-1.1649	-0.7646	0.5980	1.4213	0.6222	0.8870	-0.3801	0.0686	-0.0500	0.4286	2.2928	1.6182	0.6740	-0.1810	-0.5395	0.0832	1.0803	1.5334	1.4691	-1.1389	-0.2204	-0.7057	0.6495	1.7166	1.4518	-1.1497	-0.7554	0.5675	1.4085	0.6349	0.9153	-0.3890	0.0534	-0.0754	0.4054	2.3195	1.6420	0.6973	-0.1580	
