Arquivo: c:\arq\medidas\BBA_0105_072004\BBA_AMP10B_V.dat
Data: 0105	 Hora:  0820
Comentário: 
NomeParametro	 ValorParametro
Nmedias	5
PausaCorretora	3000
PausaShunt	2000
PausaLeitura	500
NumCiclos	3
 NPassosCor	7
DeltaShunt	3.00
TetaIni	-0.10
TetaFim	0.10
I[mA]	  33.9
ACV01B	DeltaPos^2	AMP10B	AMP01B_0	AMP02A_0	AMP02B_0	AMP03A_0	AMP03B_0	AMP03C_0	AMP04A_0	AMP04B_0	AMP05A_0	AMP05B_0	AMP06A_0	AMP06B_0	AMP07A_0	AMP07B_0	AMP08A_0	AMP08B_0	AMP09A_0	AMP09B_0	AMP10A_0	AMP10B_0	AMU11A_0	AMU11B_0	AMP12A_0	AMP12B_0	AMP01A_0	AMP01B_1	AMP02A_1	AMP02B_1	AMP03A_1	AMP03B_1	AMP03C_1	AMP04A_1	AMP04B_1	AMP05A_1	AMP05B_1	AMP06A_1	AMP06B_1	AMP07A_1	AMP07B_1	AMP08A_1	AMP08B_1	AMP09A_1	AMP09B_1	AMP10A_1	AMP10B_1	AMU11A_1	AMU11B_1	AMP12A_1	AMP12B_1	AMP01A_1	
-0.1000	 3.32816547918607E-0004	-0.0223	-1.3470	-0.8011	-0.0223	0.2467	2.8526	1.9345	0.8552	-0.7517	-0.0652	1.2967	1.6255	0.0009	1.0516	-0.8575	0.2196	-0.2788	0.1145	0.6904	0.7282	-0.0223	0.0736	1.9775	1.6724	1.3006	0.7710	-1.3758	-0.8128	-0.0144	0.2681	2.8606	1.9228	0.8454	-0.7713	-0.0934	1.3281	1.6461	0.0090	1.0615	-0.8803	0.2142	-0.2655	0.1399	0.6808	0.7150	-0.0405	0.0555	2.0033	1.6926	1.3156	0.7848	
-0.0667	 1.62110213365489E-0004	0.1818	-1.0232	-0.5608	0.1175	0.3289	2.6226	1.4877	0.7368	-0.6057	0.2367	1.1796	1.4567	-0.2552	0.7316	-0.4815	0.4687	-0.2094	0.0719	0.4958	0.6861	0.1818	0.3547	1.8239	1.4539	1.0926	0.5771	-1.0435	-0.5692	0.1224	0.3440	2.6307	1.4810	0.7311	-0.6192	0.2175	1.2023	1.4713	-0.2492	0.7393	-0.4969	0.4647	-0.2008	0.0898	0.4897	0.6776	0.1697	0.3447	1.8438	1.4677	1.1033	0.5870	
-0.0333	 4.07363111846143E-0005	0.3966	-0.6814	-0.3082	0.2636	0.4151	2.3800	1.0154	0.6133	-0.4515	0.5545	1.0558	1.2785	-0.5251	0.3936	-0.0850	0.7316	-0.1364	0.0275	0.2902	0.6417	0.3966	0.6506	1.6618	1.2233	0.8730	0.3728	-0.6913	-0.3123	0.2656	0.4227	2.3871	1.0141	0.6113	-0.4581	0.5460	1.0675	1.2859	-0.5215	0.3992	-0.0918	0.7293	-0.1326	0.0355	0.2885	0.6384	0.3914	0.6491	1.6743	1.2299	0.8789	0.3778	
0.0000	 6.42103261721088E-0006	0.6110	-0.3404	-0.0559	0.4088	0.5005	2.1374	0.5438	0.4905	-0.2971	0.8710	0.9314	1.1000	-0.7943	0.0566	0.3101	0.9934	-0.0633	-0.0166	0.0857	0.5973	0.6110	0.9451	1.4997	0.9923	0.6540	0.1691	-0.3402	-0.0560	0.4076	0.5002	2.1437	0.5476	0.4923	-0.2961	0.8727	0.9317	1.1000	-0.7933	0.0600	0.3111	0.9928	-0.0646	-0.0179	0.0880	0.5995	0.6123	0.9520	1.5043	0.9923	0.6541	0.1696	
0.0333	 5.67341659783917E-0005	0.8265	0.0020	0.1981	0.5549	0.5867	1.8917	0.0681	0.3665	-0.1413	1.1908	0.8067	0.9193	-1.0650	-0.2836	0.7082	1.2566	0.0104	-0.0607	-0.1211	0.5528	0.8265	1.2404	1.3364	0.7597	0.4334	-0.0356	0.0117	0.2022	0.5507	0.5783	1.8975	0.0776	0.3721	-0.1333	1.2017	0.7963	0.9122	-1.0668	-0.2811	0.7161	1.2581	0.0041	-0.0713	-0.1140	0.5607	0.8347	1.2546	1.3328	0.7523	0.4281	-0.0398	
0.0667	 1.92681101503026E-0004	1.0428	0.3441	0.4518	0.7016	0.6738	1.6444	-0.4103	0.2418	0.0145	1.5107	0.6815	0.7383	-1.3361	-0.6250	1.1074	1.5205	0.0843	-0.1050	-0.3284	0.5082	1.0428	1.5370	1.1729	0.5257	0.2123	-0.2408	0.3635	0.4601	0.6941	0.6566	1.6503	-0.3953	0.2518	0.0302	1.5304	0.6596	0.7236	-1.3406	-0.6233	1.1216	1.5233	0.0726	-0.1251	-0.3158	0.5216	1.0579	1.5581	1.1616	0.5108	0.2015	-0.2494	
0.1000	 3.93744983902890E-0004	1.2589	0.6854	0.7049	0.8489	0.7615	1.3964	-0.8890	0.1175	0.1704	1.8290	0.5561	0.5578	-1.6069	-0.9660	1.5053	1.7838	0.1582	-0.1493	-0.5356	0.4636	1.2589	1.8328	1.0083	0.2924	-0.0076	-0.4455	0.7129	0.7173	0.8378	0.7359	1.4022	-0.8684	0.1313	0.1929	1.8569	0.5238	0.5351	-1.6137	-0.9636	1.5235	1.7879	0.1418	-0.1783	-0.5168	0.4821	1.2805	1.8600	0.9898	0.2704	-0.0243	-0.4578	
