Arquivo: c:\arq\medidas\BBA_0105_072004\BBA_AMP03A_V.dat
Data: 0105	 Hora:  0731
Comentário: 
NomeParametro	 ValorParametro
Nmedias	5
PausaCorretora	3000
PausaShunt	2000
PausaLeitura	500
NumCiclos	3
 NPassosCor	7
DeltaShunt	3.00
TetaIni	-0.10
TetaFim	0.10
I[mA]	 145.6
ACV09A	DeltaPos^2	AMP03A	AMP01B_0	AMP02A_0	AMP02B_0	AMP03A_0	AMP03B_0	AMP03C_0	AMP04A_0	AMP04B_0	AMP05A_0	AMP05B_0	AMP06A_0	AMP06B_0	AMP07A_0	AMP07B_0	AMP08A_0	AMP08B_0	AMP09A_0	AMP09B_0	AMP10A_0	AMP10B_0	AMU11A_0	AMU11B_0	AMP12A_0	AMP12B_0	AMP01A_0	AMP01B_1	AMP02A_1	AMP02B_1	AMP03A_1	AMP03B_1	AMP03C_1	AMP04A_1	AMP04B_1	AMP05A_1	AMP05B_1	AMP06A_1	AMP06B_1	AMP07A_1	AMP07B_1	AMP08A_1	AMP08B_1	AMP09A_1	AMP09B_1	AMP10A_1	AMP10B_1	AMU11A_1	AMU11B_1	AMP12A_1	AMP12B_1	AMP01A_1	
-0.1000	 3.38157434730759E-0003	-0.3915	-0.2534	-0.2457	-0.2042	-0.3915	2.7501	2.0682	1.1403	0.0546	1.0236	0.2222	0.7893	-0.4287	0.8327	-0.0114	0.5619	-0.6995	-0.8330	0.4702	1.0602	1.2074	1.4027	0.7812	0.4256	0.6761	0.5439	-0.2837	-0.2897	-0.2703	-0.4773	2.7759	2.1561	1.1902	0.1177	1.0926	0.1255	0.7280	-0.4316	0.8653	0.0181	0.5569	-0.7595	-0.9259	0.5441	1.1218	1.2522	1.4223	0.7149	0.3872	0.7050	0.6122	
-0.0667	 1.53865180978447E-0003	-0.0948	-0.2859	-0.1884	-0.0042	-0.0948	2.5499	1.5703	0.9297	-0.0603	0.9692	0.4493	0.8858	-0.5486	0.5758	0.0903	0.6997	-0.4952	-0.5701	0.3411	0.9086	1.0131	1.2505	1.0144	0.6074	0.6705	0.4252	-0.3057	-0.2180	-0.0488	-0.1529	2.5666	1.6296	0.9625	-0.0178	1.0161	0.3839	0.8441	-0.5508	0.5980	0.1104	0.6965	-0.5356	-0.6330	0.3906	0.9498	1.0435	1.2638	0.9694	0.5806	0.6898	0.4709	
-0.0333	 3.94750794834621E-0004	0.2052	-0.3191	-0.1307	0.1980	0.2052	2.3463	1.0651	0.7159	-0.1764	0.9140	0.6784	0.9833	-0.6693	0.3170	0.1921	0.8386	-0.2889	-0.3041	0.2107	0.7550	0.8161	1.0959	1.2496	0.7904	0.6655	0.3061	-0.3287	-0.1453	0.1755	0.1752	2.3538	1.0944	0.7319	-0.1547	0.9382	0.6450	0.9617	-0.6709	0.3280	0.2025	0.8370	-0.3095	-0.3364	0.2355	0.7759	0.8322	1.1029	1.2264	0.7769	0.6746	0.3282	
0.0000	 7.74748074162725E-0007	0.5078	-0.3537	-0.0732	0.4013	0.5078	2.1411	0.5537	0.5007	-0.2935	0.8585	0.9092	1.0813	-0.7910	0.0556	0.2947	0.9787	-0.0805	-0.0361	0.0792	0.6000	0.6171	0.9404	1.4865	0.9762	0.6615	0.1865	-0.3529	-0.0729	0.4008	0.5061	2.1390	0.5532	0.5003	-0.2929	0.8594	0.9077	1.0805	-0.7917	0.0551	0.2953	0.9786	-0.0808	-0.0371	0.0791	0.6001	0.6177	0.9410	1.4856	0.9754	0.6605	0.1854	
0.0333	 3.74756976938153E-0004	0.8111	-0.3891	-0.0159	0.6051	0.8111	1.9338	0.0398	0.2843	-0.4109	0.8034	1.1411	1.1799	-0.9132	-0.2066	0.3970	1.1190	0.1289	0.2337	-0.0523	0.4448	0.4171	0.7830	1.7245	1.1626	0.6575	0.0676	-0.3781	-0.0006	0.6269	0.8385	1.9226	0.0088	0.2672	-0.4312	0.7811	1.1723	1.1995	-0.9130	-0.2180	0.3874	1.1206	0.1486	0.2638	-0.0774	0.4235	0.4022	0.7770	1.7454	1.1751	0.6468	0.0432	
0.0667	 1.50969952808801E-0003	1.1131	-0.4253	0.0408	0.8089	1.1131	1.7266	-0.4741	0.0683	-0.5275	0.7483	1.3719	1.2781	-1.0347	-0.4688	0.4996	1.2587	0.3374	0.5024	-0.1833	0.2896	0.2168	0.6251	1.9611	1.3485	0.6542	-0.0508	-0.4042	0.0709	0.8525	1.1692	1.7062	-0.5358	0.0345	-0.5690	0.7029	1.4348	1.3178	-1.0338	-0.4913	0.4799	1.2622	0.3772	0.5635	-0.2331	0.2478	0.1870	0.6126	2.0041	1.3728	0.6332	-0.0986	
0.1000	 3.47044922225603E-0003	1.4246	-0.4639	0.0996	1.0193	1.4246	1.5115	-1.0057	-0.1552	-0.6486	0.6912	1.6102	1.3795	-1.1607	-0.7398	0.6052	1.4034	0.5535	0.7802	-0.3181	0.1297	0.0094	0.4608	2.2058	1.5413	0.6510	-0.1726	-0.4324	0.1447	1.0854	1.5096	1.4813	-1.0981	-0.2060	-0.7119	0.6218	1.7063	1.4401	-1.1586	-0.7742	0.5754	1.4085	0.6138	0.8737	-0.3937	0.0667	-0.0360	0.4414	2.2708	1.5791	0.6201	-0.2445	
