Arquivo: c:\arq\medidas\BBA_1004_064227\BBA_AMP03B_V.dat
Data: 1004	 Hora:  0656
Comentário: 
NomeParametro	 ValorParametro
Nmedias	5
PausaCorretora	3000
PausaShunt	2000
PausaLeitura	500
NumCiclos	3
 NPassosCor	7
DeltaShunt	3.00
TetaIni	-0.10
TetaFim	0.10
I[mA]	 164.0
ACV09B	DeltaPos^2	AMP03B	AMP01B_0	AMP02A_0	AMP02B_0	AMP03A_0	AMP03B_0	AMP03C_0	AMP04A_0	AMP04B_0	AMP05A_0	AMP05B_0	AMP06A_0	AMP06B_0	AMP07A_0	AMP07B_0	AMP08A_0	AMP08B_0	AMP09A_0	AMP09B_0	AMP10A_0	AMP10B_0	AMU11A_0	AMU11B_0	AMP12A_0	AMP12B_0	AMP01A_0	AMP01B_1	AMP02A_1	AMP02B_1	AMP03A_1	AMP03B_1	AMP03C_1	AMP04A_1	AMP04B_1	AMP05A_1	AMP05B_1	AMP06A_1	AMP06B_1	AMP07A_1	AMP07B_1	AMP08A_1	AMP08B_1	AMP09A_1	AMP09B_1	AMP10A_1	AMP10B_1	AMU11A_1	AMU11B_1	AMP12A_1	AMP12B_1	AMP01A_1	
-0.1000	 8.26263347543972E-0003	1.3011	0.1020	0.4625	1.0588	1.2634	1.3011	-1.2921	-0.1464	-0.2798	1.2658	1.1723	0.9868	-1.4727	-1.0134	1.1452	1.6811	0.4321	0.3528	-0.8301	-0.0621	0.2552	0.8798	2.0802	1.2562	0.2532	-0.6212	0.2115	0.5556	1.1283	1.3196	1.1976	-1.5160	-0.2398	-0.3271	1.2470	1.2689	1.0261	-1.5275	-1.1279	1.1937	1.7436	0.5218	0.4583	-0.9649	-0.1478	0.2469	0.9204	2.1256	1.2525	0.1690	-0.7512	
-0.0667	 3.95609004319982E-0003	1.5762	-0.0584	0.2802	0.8438	1.0193	1.5762	-0.6868	0.0681	-0.2807	1.1366	1.0813	1.0145	-1.2509	-0.6615	0.8684	1.4517	0.2616	0.2214	-0.5231	0.1571	0.3671	0.8908	1.8897	1.1713	0.3946	-0.3480	0.0170	0.3449	0.8914	1.0586	1.5051	-0.8422	0.0036	-0.3136	1.1235	1.1481	1.0418	-1.2885	-0.7407	0.9019	1.4950	0.3239	0.2945	-0.6164	0.0977	0.3616	0.9189	1.9215	1.1691	0.3366	-0.4378	
-0.0333	 1.14007270256573E-0003	1.8568	-0.2231	0.0942	0.6239	0.7694	1.8568	-0.0680	0.2877	-0.2814	1.0056	0.9877	1.0419	-1.0250	-0.3031	0.5864	1.2181	0.0875	0.0861	-0.2099	0.3810	0.4816	0.9018	1.6948	1.0847	0.5388	-0.0693	-0.1822	0.1290	0.6496	0.7910	1.8187	-0.1512	0.2533	-0.2989	0.9989	1.0239	1.0569	-1.0451	-0.3450	0.6045	1.2413	0.1211	0.1256	-0.2598	0.3490	0.4787	0.9169	1.7124	1.0839	0.5076	-0.1173	
0.0000	 1.68104795664875E-0005	2.1386	-0.3899	-0.0942	0.4012	0.5162	2.1386	0.5562	0.5092	-0.2813	0.8742	0.8921	1.0691	-0.7965	0.0592	0.3023	0.9815	-0.0892	-0.0519	0.1073	0.6073	0.5969	0.9126	1.4972	0.9971	0.6845	0.2126	-0.3845	-0.0897	0.4043	0.5192	2.1347	0.5464	0.5053	-0.2834	0.8736	0.8965	1.0711	-0.7985	0.0548	0.3041	0.9841	-0.0846	-0.0462	0.1014	0.6034	0.5962	0.9145	1.5004	0.9977	0.6808	0.2069	
0.0333	 6.71546455606636E-0004	2.4219	-0.5586	-0.2838	0.1771	0.2609	2.4219	1.1841	0.7328	-0.2807	0.7426	0.7947	1.0957	-0.5666	0.4234	0.0159	0.7430	-0.2673	-0.1910	0.4263	0.8352	0.7130	0.9233	1.2980	0.9088	0.8309	0.4974	-0.5891	-0.3102	0.1573	0.2447	2.4516	1.2482	0.7602	-0.2671	0.7482	0.7675	1.0846	-0.5503	0.4571	0.0019	0.7251	-0.2924	-0.2199	0.4650	0.8597	0.7158	0.9122	1.2860	0.9106	0.8549	0.5342	
0.0667	 3.11325131737297E-0003	2.7037	-0.7272	-0.4740	-0.0486	0.0043	2.7037	1.8096	0.9574	-0.2790	0.6120	0.6965	1.1215	-0.3364	0.7875	-0.2706	0.5047	-0.4455	-0.3310	0.7462	1.0635	0.8304	0.9342	1.0976	0.8201	0.9779	0.7822	-0.7936	-0.5311	-0.0912	-0.0306	2.7669	1.9464	1.0152	-0.2492	0.6242	0.6367	1.0973	-0.3020	0.8592	-0.3003	0.4660	-0.5000	-0.3945	0.8296	1.1162	0.8356	0.9099	1.0703	0.8231	1.0295	0.8621	
0.1000	 7.25690738355028E-0003	2.9842	-0.8957	-0.6638	-0.2740	-0.2526	2.9842	2.4299	1.1813	-0.2767	0.4822	0.5970	1.1469	-0.1067	1.1511	-0.5562	0.2663	-0.6237	-0.4706	1.0658	1.2916	0.9479	0.9461	0.8960	0.7309	1.1247	1.0675	-0.9972	-0.7510	-0.3395	-0.3062	3.0804	2.6371	1.2700	-0.2306	0.5019	0.5046	1.1091	-0.0546	1.2600	-0.6015	0.2076	-0.7074	-0.5688	1.1930	1.3724	0.9562	0.9093	0.8534	0.7345	1.2037	1.1894	
