Arquivo: c:\arq\medidas\BBA_1004_064227\BBA_AMP02B_V.dat
Data: 1004	 Hora:  0650
Comentário: 
NomeParametro	 ValorParametro
Nmedias	5
PausaCorretora	3000
PausaShunt	2000
PausaLeitura	500
NumCiclos	3
 NPassosCor	7
DeltaShunt	3.00
TetaIni	-0.10
TetaFim	0.10
I[mA]	 165.7
ACV09B	DeltaPos^2	AMP02B	AMP01B_0	AMP02A_0	AMP02B_0	AMP03A_0	AMP03B_0	AMP03C_0	AMP04A_0	AMP04B_0	AMP05A_0	AMP05B_0	AMP06A_0	AMP06B_0	AMP07A_0	AMP07B_0	AMP08A_0	AMP08B_0	AMP09A_0	AMP09B_0	AMP10A_0	AMP10B_0	AMU11A_0	AMU11B_0	AMP12A_0	AMP12B_0	AMP01A_0	AMP01B_1	AMP02A_1	AMP02B_1	AMP03A_1	AMP03B_1	AMP03C_1	AMP04A_1	AMP04B_1	AMP05A_1	AMP05B_1	AMP06A_1	AMP06B_1	AMP07A_1	AMP07B_1	AMP08A_1	AMP08B_1	AMP09A_1	AMP09B_1	AMP10A_1	AMP10B_1	AMU11A_1	AMU11B_1	AMP12A_1	AMP12B_1	AMP01A_1	
-0.1000	 5.89569862150171E-0004	1.0306	0.1030	0.4519	1.0306	1.2207	1.3052	-1.2652	-0.1284	-0.2502	1.3010	1.1290	0.9573	-1.4796	-1.0062	1.1665	1.6841	0.4085	0.3121	-0.8087	-0.0391	0.2807	0.8982	2.0480	1.2319	0.2564	-0.6011	0.1307	0.4768	1.0527	1.2543	1.2800	-1.3226	-0.1525	-0.2630	1.2953	1.1542	0.9682	-1.4932	-1.0331	1.1773	1.6997	0.4327	0.3392	-0.8434	-0.0612	0.2782	0.9082	2.0607	1.2310	0.2340	-0.6360	
-0.0667	 3.17172826633583E-0004	0.8255	-0.0461	0.2808	0.8255	0.9872	1.5693	-0.6857	0.0749	-0.2595	1.1662	1.0526	0.9923	-1.2624	-0.6672	0.8925	1.4609	0.2500	0.1957	-0.5185	0.1686	0.3896	0.9114	1.8655	1.1490	0.3882	-0.3444	-0.0254	0.2994	0.8420	1.0123	1.5509	-0.7281	0.0575	-0.2686	1.1624	1.0706	1.0000	-1.2726	-0.6866	0.9005	1.4724	0.2675	0.2151	-0.5440	0.1528	0.3873	0.9195	1.8746	1.1477	0.3715	-0.3698	
-0.0333	 1.27188171736615E-0004	0.6162	-0.1988	0.1061	0.6162	0.7480	1.8388	-0.0929	0.2827	-0.2685	1.0286	0.9737	1.0277	-1.0411	-0.3205	0.6126	1.2329	0.0874	0.0755	-0.2224	0.3803	0.4998	0.9247	1.6790	1.0649	0.5230	-0.0816	-0.1858	0.1182	0.6271	0.7640	1.8264	-0.1197	0.2719	-0.2738	1.0272	0.9850	1.0319	-1.0478	-0.3326	0.6179	1.2404	0.0984	0.0873	-0.2380	0.3707	0.4993	0.9306	1.6842	1.0630	0.5121	-0.0978	
0.0000	 2.13560597813524E-0005	0.4048	-0.3543	-0.0711	0.4048	0.5061	2.1094	0.5045	0.4924	-0.2774	0.8903	0.8942	1.0625	-0.8173	0.0287	0.3304	1.0020	-0.0770	-0.0459	0.0771	0.5945	0.6116	0.9375	1.4904	0.9796	0.6591	0.1840	-0.3482	-0.0654	0.4094	0.5126	2.1038	0.4935	0.4882	-0.2785	0.8911	0.8974	1.0639	-0.8205	0.0244	0.3332	1.0053	-0.0727	-0.0429	0.0710	0.5913	0.6125	0.9413	1.4914	0.9775	0.6541	0.1770	
0.0333	 7.47364389971211E-0006	0.1916	-0.5107	-0.2492	0.1916	0.2623	2.3815	1.1052	0.7036	-0.2853	0.7526	0.8122	1.0966	-0.5924	0.3798	0.0468	0.7699	-0.2425	-0.1687	0.3792	0.8102	0.7242	0.9507	1.2998	0.8936	0.7959	0.4514	-0.5123	-0.2502	0.1904	0.2594	2.3821	1.1104	0.7062	-0.2826	0.7556	0.8080	1.0945	-0.5919	0.3829	0.0472	0.7692	-0.2453	-0.1741	0.3829	0.8133	0.7262	0.9523	1.2971	0.8908	0.7967	0.4542	
0.0667	 8.65837274761784E-0005	-0.0232	-0.6674	-0.4275	-0.0232	0.0169	2.6523	1.7044	0.9157	-0.2925	0.6154	0.7294	1.1304	-0.3673	0.7307	-0.2369	0.5377	-0.4084	-0.2923	0.6812	1.0266	0.8370	0.9639	1.1080	0.8068	0.9330	0.7197	-0.6760	-0.4348	-0.0305	0.0044	2.6590	1.7253	0.9250	-0.2855	0.6211	0.7173	1.1247	-0.3636	0.7413	-0.2387	0.5328	-0.4179	-0.3063	0.6950	1.0363	0.8412	0.9638	1.1009	0.8035	0.9398	0.7319	
0.1000	 2.61297227204184E-0004	-0.2398	-0.8250	-0.6074	-0.2398	-0.2310	2.9247	2.3054	1.1299	-0.2984	0.4778	0.6448	1.1638	-0.1406	1.0852	-0.5230	0.3032	-0.5759	-0.4174	0.9864	1.2446	0.9519	0.9785	0.9132	0.7190	1.0717	0.9903	-0.8412	-0.6215	-0.2532	-0.2531	2.9377	2.3420	1.1465	-0.2874	0.4857	0.6251	1.1547	-0.1330	1.1036	-0.5276	0.2940	-0.5926	-0.4398	1.0103	1.2615	0.9575	0.9762	0.9019	0.7154	1.0842	1.0123	
